Timestamp,TP9,AF7,AF8,TP10,Right AUX
1718464696,51.7578125,-33.203125,-26.3671875,51.7578125,0
1718464696,-18.5546875,-37.59765625,-30.76171875,-39.55078125,0
1718464696,-41.015625,-36.62109375,-31.25,-75.1953125,0
1718464696,23.92578125,-35.15625,-29.78515625,0,0
1718464696,50.29296875,-36.1328125,-30.2734375,48.33984375,0
1718464696,-7.32421875,-40.0390625,-39.0625,-1.46484375,0
1718464696,-52.734375,-45.41015625,-36.62109375,-66.89453125,0
1718464696,-20.01953125,-37.109375,-31.25,-40.52734375,0
1718464696,37.59765625,-35.15625,-26.85546875,51.7578125,0
1718464696,11.71875,-52.734375,-24.90234375,37.59765625,0
1718464696,-62.98828125,-58.10546875,-33.69140625,-63.96484375,0
1718464696,-35.64453125,-46.38671875,-29.296875,-37.59765625,0
1718464696,42.48046875,-48.33984375,-31.25,71.2890625,0
1718464696,12.20703125,-54.19921875,-36.1328125,49.31640625,0
1718464696,-66.89453125,-60.546875,-35.64453125,-54.19921875,0
1718464696,-70.3125,-56.640625,-39.55078125,-63.4765625,0
1718464696,-0.48828125,-49.8046875,-31.73828125,26.85546875,0
1718464696,31.25,-52.734375,-26.85546875,74.70703125,0
1718464696,-31.73828125,-51.26953125,-32.2265625,-5.37109375,0
1718464696,-62.98828125,-46.875,-36.1328125,-63.96484375,0
1718464696,10.25390625,-43.9453125,-37.109375,24.90234375,0
1718464696,62.5,-50.29296875,-29.78515625,109.8632813,0
1718464696,-12.6953125,-43.9453125,-25.390625,14.16015625,0
1718464696,-64.94140625,-41.50390625,-34.66796875,-75.1953125,0
1718464696,-5.37109375,-45.8984375,-31.25,-23.4375,0
1718464696,43.9453125,-48.33984375,-24.4140625,51.26953125,0
1718464696,6.34765625,-40.52734375,-26.85546875,17.578125,0
1718464696,-46.875,-35.15625,-28.80859375,-81.54296875,0
1718464696,-15.625,-42.96875,-41.50390625,-60.546875,0
1718464696,43.9453125,-47.8515625,-49.31640625,26.3671875,0
1718464696,30.76171875,-43.45703125,-40.52734375,29.78515625,0
1718464696,-34.1796875,-34.66796875,-31.73828125,-52.24609375,0
1718464696,-35.64453125,-42.48046875,-35.15625,-56.15234375,0
1718464696,24.4140625,-47.8515625,-32.2265625,23.4375,0
1718464696,34.1796875,-30.76171875,-22.4609375,33.203125,0
1718464696,-11.23046875,-36.62109375,-31.25,-23.4375,0
1718464696,-33.69140625,-43.9453125,-37.109375,-64.453125,0
1718464696,10.25390625,-36.1328125,-32.2265625,-13.18359375,0
1718464696,54.19921875,-28.80859375,-26.85546875,58.10546875,0
1718464696,18.06640625,-30.76171875,-27.34375,22.4609375,0
1718464696,-43.45703125,-45.41015625,-40.0390625,-56.640625,0
1718464696,-29.296875,-53.7109375,-42.48046875,-32.71484375,0
1718464696,20.01953125,-49.31640625,-19.04296875,41.50390625,0
1718464696,-5.37109375,-44.43359375,-11.71875,25.87890625,0
1718464696,-51.7578125,-61.03515625,-24.90234375,-33.203125,0
1718464696,-53.7109375,-63.4765625,-17.578125,-53.22265625,0
1718464696,11.23046875,-44.921875,-8.7890625,22.4609375,0
1718464696,23.4375,-45.8984375,-15.625,47.36328125,0
1718464696,-34.1796875,-48.828125,-23.92578125,-29.296875,0
1718464696,-45.41015625,-46.38671875,-24.90234375,-57.6171875,0
1718464696,19.53125,-42.48046875,-22.4609375,7.32421875,0
1718464696,49.31640625,-42.48046875,-24.90234375,56.15234375,0
1718464696,-10.25390625,-35.64453125,-25.87890625,-12.20703125,0
1718464696,-40.0390625,-32.71484375,-22.94921875,-80.078125,0
1718464696,9.27734375,-36.1328125,-21.97265625,-33.69140625,0
1718464696,57.6171875,-39.0625,-20.99609375,50.29296875,0
1718464696,12.20703125,-48.33984375,-27.34375,17.578125,0
1718464696,-59.5703125,-41.9921875,-33.69140625,-84.9609375,0
1718464696,-21.484375,-38.0859375,-34.1796875,-52.24609375,0
1718464696,47.36328125,-40.0390625,-24.4140625,46.38671875,0
1718464696,16.6015625,-39.0625,-20.5078125,36.62109375,0
1718464696,-61.03515625,-41.015625,-32.2265625,-63.96484375,0
1718464696,-52.734375,-43.45703125,-38.57421875,-66.40625,0
1718464696,20.5078125,-44.921875,-26.85546875,35.64453125,0
1718464696,16.6015625,-40.52734375,-10.25390625,60.546875,0
1718464696,-43.45703125,-37.59765625,-21.97265625,-18.5546875,0
1718464696,-44.921875,-43.45703125,-30.2734375,-58.59375,0
1718464696,25.87890625,-51.7578125,-23.92578125,29.296875,0
1718464696,23.92578125,-45.41015625,-10.25390625,50.78125,0
1718464696,-38.0859375,-35.64453125,-8.7890625,-21.97265625,0
1718464696,-69.3359375,-45.8984375,-18.5546875,-66.40625,0
1718464696,-30.2734375,-50.29296875,-15.625,-23.92578125,0
1718464696,27.83203125,-35.64453125,-10.7421875,51.7578125,0
1718464696,2.44140625,-34.66796875,-12.20703125,35.15625,0
1718464696,-62.5,-54.19921875,-22.4609375,-48.828125,0
1718464696,-43.9453125,-60.546875,-28.80859375,-41.9921875,0
1718464696,26.3671875,-51.7578125,-23.92578125,43.45703125,0
1718464696,24.4140625,-46.38671875,-14.6484375,46.38671875,0
1718464696,-34.1796875,-48.828125,-15.625,-24.90234375,0
1718464696,-45.8984375,-62.01171875,-22.94921875,-40.52734375,0
1718464696,4.8828125,-56.640625,-22.94921875,21.484375,0
1718464696,23.4375,-44.43359375,-19.53125,55.6640625,0
1718464696,-18.06640625,-44.43359375,-20.01953125,0,0
1718464696,-45.41015625,-45.41015625,-24.90234375,-50.78125,0
1718464696,4.39453125,-44.921875,-23.92578125,6.34765625,0
1718464696,43.45703125,-43.9453125,-16.11328125,62.01171875,0
1718464696,-0.48828125,-45.8984375,-20.99609375,22.94921875,0
1718464696,-37.109375,-44.921875,-28.80859375,-52.734375,0
1718464696,2.44140625,-44.921875,-26.3671875,-26.3671875,0
1718464696,54.6875,-44.921875,-25.87890625,56.640625,0
1718464696,47.8515625,-42.48046875,-26.85546875,64.453125,0
1718464696,-35.64453125,-41.9921875,-25.87890625,-50.78125,0
1718464696,-35.64453125,-41.015625,-27.83203125,-58.59375,0
1718464696,35.15625,-42.96875,-26.85546875,43.9453125,0
1718464696,23.4375,-40.52734375,-24.4140625,37.109375,0
1718464696,-36.62109375,-36.1328125,-21.484375,-47.36328125,0
1718464696,-38.57421875,-41.9921875,-14.6484375,-71.77734375,0
1718464696,18.06640625,-43.9453125,-14.6484375,10.25390625,0
1718464696,23.92578125,-48.828125,-12.20703125,51.7578125,0
1718464696,-32.2265625,-52.24609375,-15.625,-18.5546875,0
1718464696,-50.29296875,-47.36328125,-35.64453125,-62.98828125,0
1718464696,9.765625,-48.828125,-20.99609375,20.5078125,0
1718464696,38.0859375,-48.33984375,0,83.0078125,0
1718464696,-14.6484375,-44.43359375,2.44140625,20.01953125,0
1718464696,-60.05859375,-49.31640625,-0.9765625,-63.96484375,0
1718464696,-15.625,-59.08203125,-10.7421875,-22.4609375,0
1718464696,25.390625,-59.08203125,-9.27734375,43.9453125,0
1718464696,-9.765625,-51.26953125,-3.90625,18.5546875,0
1718464696,-59.5703125,-58.59375,-17.08984375,-44.921875,0
1718464696,-53.22265625,-60.546875,-27.34375,-49.31640625,0
1718464696,2.44140625,-53.7109375,-18.06640625,20.5078125,0
1718464696,6.8359375,-45.41015625,-10.25390625,32.71484375,0
1718464696,-41.015625,-41.9921875,-18.06640625,-35.64453125,0
1718464696,-38.0859375,-55.17578125,-28.3203125,-55.17578125,0
1718464696,7.8125,-49.8046875,-19.04296875,2.44140625,0
1718464696,32.2265625,-35.15625,-3.41796875,37.109375,0
1718464696,-1.953125,-32.71484375,-8.30078125,-5.37109375,0
1718464696,-20.99609375,-42.48046875,-20.99609375,-28.3203125,0
1718464696,6.8359375,-44.921875,-20.5078125,-14.6484375,0
1718464696,36.1328125,-33.69140625,-6.8359375,36.62109375,0
1718464696,11.71875,-29.78515625,-8.7890625,21.484375,0
1718464696,-35.64453125,-37.109375,-19.04296875,-72.265625,0
1718464696,-20.99609375,-37.59765625,-12.6953125,-64.453125,0
1718464696,30.2734375,-28.80859375,-7.8125,26.85546875,0
1718464696,17.08984375,-33.203125,-12.6953125,33.203125,0
1718464696,-40.0390625,-47.36328125,-20.01953125,-42.48046875,0
1718464696,-41.015625,-45.8984375,-15.625,-62.01171875,0
1718464696,13.671875,-36.62109375,-4.8828125,9.27734375,0
1718464696,40.52734375,-40.52734375,-7.32421875,65.91796875,0
1718464696,-21.484375,-48.33984375,-14.6484375,-3.41796875,0
1718464696,-69.3359375,-42.96875,-15.13671875,-80.56640625,0
1718464696,-2.9296875,-36.62109375,-11.71875,0.48828125,0
1718464696,44.921875,-41.015625,-7.32421875,83.0078125,0
1718464696,-13.18359375,-44.921875,-10.25390625,20.5078125,0
1718464696,-67.3828125,-49.31640625,-19.04296875,-72.75390625,0
1718464696,-17.08984375,-49.31640625,-18.06640625,-24.90234375,0
1718464696,45.41015625,-48.33984375,-12.20703125,69.3359375,0
1718464696,13.18359375,-44.43359375,-13.18359375,36.62109375,0
1718464696,-51.26953125,-49.31640625,-14.6484375,-55.6640625,0
1718464696,-25.87890625,-46.38671875,-7.8125,-37.109375,0
1718464696,53.7109375,-52.734375,-3.41796875,84.47265625,0
1718464696,18.5546875,-54.6875,-1.46484375,58.59375,0
1718464696,-38.0859375,-41.9921875,-11.23046875,-38.0859375,0
1718464696,-22.94921875,-43.9453125,-20.99609375,-30.2734375,0
1718464696,28.80859375,-44.921875,-18.06640625,37.59765625,0
1718464696,30.76171875,-38.57421875,-15.625,51.7578125,0
1718464696,-19.53125,-41.9921875,-22.94921875,-10.7421875,0
1718464696,-28.3203125,-52.734375,-26.85546875,-53.7109375,0
1718464696,16.6015625,-52.24609375,-15.13671875,-3.90625,0
1718464696,48.33984375,-46.38671875,-13.671875,58.10546875,0
1718464696,-8.30078125,-47.8515625,-22.94921875,6.8359375,0
1718464696,-41.50390625,-52.24609375,-30.76171875,-55.17578125,0
1718464696,1.953125,-47.8515625,-32.2265625,-6.34765625,0
1718464696,38.0859375,-29.78515625,-18.06640625,57.6171875,0
1718464696,24.4140625,-24.90234375,-11.71875,38.57421875,0
1718464696,-23.92578125,-33.69140625,-23.4375,-28.80859375,0
1718464696,-21.97265625,-36.1328125,-29.78515625,-23.4375,0
1718464696,24.90234375,-28.3203125,-16.11328125,41.015625,0
1718464696,33.203125,-26.85546875,-15.13671875,57.6171875,0
1718464696,-16.6015625,-35.15625,-21.484375,-9.27734375,0
1718464696,-41.015625,-37.59765625,-17.578125,-57.12890625,0
1718464696,21.97265625,-31.25,-10.7421875,12.6953125,0
1718464696,46.875,-34.66796875,-15.625,63.96484375,0
1718464696,3.41796875,-50.29296875,-31.25,15.625,0
1718464696,-41.9921875,-45.8984375,-24.90234375,-60.546875,0
1718464696,0.9765625,-34.1796875,-13.18359375,-14.16015625,0
1718464696,61.5234375,-32.71484375,-15.13671875,68.359375,0
1718464696,13.18359375,-33.69140625,-22.94921875,29.78515625,0
1718464696,-40.52734375,-34.1796875,-23.4375,-52.24609375,0
1718464696,11.23046875,-32.71484375,-10.7421875,-17.578125,0
1718464696,69.3359375,-38.0859375,-4.39453125,83.0078125,0
1718464696,28.3203125,-44.43359375,-16.6015625,58.59375,0
1718464696,-41.015625,-43.9453125,-22.94921875,-52.24609375,0
1718464696,-23.4375,-48.33984375,-21.484375,-49.31640625,0
1718464696,41.50390625,-48.828125,-14.6484375,49.31640625,0
1718464696,37.59765625,-50.29296875,-10.25390625,65.4296875,0
1718464696,-31.25,-46.875,-14.16015625,-37.109375,0
1718464696,-42.48046875,-44.43359375,-16.6015625,-72.75390625,0
1718464696,26.3671875,-46.38671875,-15.625,24.90234375,0
1718464696,44.921875,-44.43359375,-9.27734375,67.87109375,0
1718464696,-13.671875,-46.38671875,-12.20703125,-5.37109375,0
1718464696,-49.31640625,-47.36328125,-20.01953125,-62.98828125,0
1718464696,5.37109375,-46.875,-20.99609375,-3.41796875,0
1718464696,42.48046875,-39.55078125,-5.859375,67.3828125,0
1718464696,0.9765625,-30.76171875,-5.859375,25.390625,0
1718464696,-38.0859375,-38.57421875,-19.04296875,-41.50390625,0
1718464696,1.953125,-48.33984375,-19.04296875,8.30078125,0
1718464696,33.203125,-40.0390625,-8.7890625,57.12890625,0
1718464696,-1.46484375,-31.25,-6.8359375,15.13671875,0
1718464696,-49.8046875,-35.15625,-17.08984375,-56.640625,0
1718464696,-42.96875,-38.57421875,-18.5546875,-50.29296875,0
1718464696,22.4609375,-34.1796875,-7.32421875,41.015625,0
1718464696,37.109375,-25.87890625,-2.9296875,56.640625,0
1718464696,-21.97265625,-33.69140625,-16.6015625,-20.99609375,0
1718464696,-50.78125,-39.0625,-22.4609375,-59.08203125,0
1718464696,2.44140625,-37.109375,-11.23046875,-0.9765625,0
1718464696,40.52734375,-40.0390625,-7.32421875,52.734375,0
1718464696,2.44140625,-40.52734375,-10.7421875,10.25390625,0
1718464696,-43.45703125,-50.78125,-18.06640625,-56.640625,0
1718464696,-13.18359375,-41.9921875,-13.671875,-38.57421875,0
1718464696,52.24609375,-26.3671875,-7.32421875,47.8515625,0
1718464696,28.3203125,-33.69140625,-13.671875,44.43359375,0
1718464696,-49.31640625,-40.0390625,-22.4609375,-56.15234375,0
1718464696,-33.203125,-35.15625,-13.18359375,-46.38671875,0
1718464696,47.8515625,-35.15625,-5.859375,59.08203125,0
1718464697,37.59765625,-40.52734375,-5.37109375,62.98828125,0
1718464697,-34.1796875,-38.57421875,-9.765625,-30.76171875,0
1718464697,-34.1796875,-27.83203125,-13.18359375,-48.828125,0
1718464697,40.0390625,-30.76171875,-12.20703125,51.26953125,0
1718464697,55.6640625,-38.57421875,-19.04296875,80.078125,0
1718464697,-11.23046875,-39.55078125,-19.04296875,-16.11328125,0
1718464697,-46.875,-36.62109375,-12.20703125,-74.70703125,0
1718464697,5.37109375,-39.55078125,-17.08984375,-3.41796875,0
1718464697,55.17578125,-46.38671875,-17.578125,78.61328125,0
1718464697,-21.484375,-46.875,-11.23046875,-6.34765625,0
1718464697,-80.56640625,-46.875,-14.16015625,-98.14453125,0
1718464697,-25.390625,-49.8046875,-15.625,-36.62109375,0
1718464697,20.99609375,-50.29296875,-7.8125,48.33984375,0
1718464697,-7.8125,-43.45703125,-12.20703125,19.04296875,0
1718464697,-55.17578125,-50.29296875,-23.4375,-62.01171875,0
1718464697,-26.85546875,-57.12890625,-28.80859375,-34.66796875,0
1718464697,32.71484375,-52.24609375,-27.34375,52.24609375,0
1718464697,22.94921875,-51.26953125,-17.578125,50.78125,0
1718464697,-31.73828125,-42.48046875,-9.27734375,-43.9453125,0
1718464697,-16.11328125,-42.96875,-12.6953125,-45.41015625,0
1718464697,39.0625,-53.22265625,-18.06640625,41.9921875,0
1718464697,30.2734375,-42.96875,-7.32421875,53.7109375,0
1718464697,-26.3671875,-38.57421875,-12.6953125,-2.9296875,0
1718464697,-47.8515625,-41.9921875,-33.203125,-45.41015625,0
1718464697,-5.37109375,-41.50390625,-23.4375,2.44140625,0
1718464697,28.3203125,-37.59765625,-9.27734375,57.12890625,0
1718464697,-1.46484375,-34.66796875,-10.7421875,16.6015625,0
1718464697,-31.25,-35.64453125,-11.71875,-49.8046875,0
1718464697,0.48828125,-35.64453125,-17.08984375,-20.99609375,0
1718464697,44.43359375,-37.59765625,-12.6953125,43.9453125,0
1718464697,25.390625,-33.69140625,-12.6953125,25.87890625,0
1718464697,-11.71875,-35.15625,-15.625,-27.34375,0
1718464697,-22.94921875,-31.25,-7.8125,-55.17578125,0
1718464697,34.66796875,-17.08984375,-6.34765625,12.6953125,0
1718464697,50.78125,-12.6953125,-9.27734375,49.8046875,0
1718464697,-27.34375,-19.04296875,-7.8125,-37.59765625,0
1718464697,-41.50390625,-23.4375,-7.8125,-71.77734375,0
1718464697,20.5078125,-25.390625,-15.625,5.859375,0
1718464697,42.96875,-32.2265625,-20.5078125,49.31640625,0
1718464697,-18.5546875,-32.71484375,-16.11328125,-20.01953125,0
1718464697,-53.22265625,-39.0625,-13.671875,-74.21875,0
1718464697,0,-41.9921875,-10.7421875,-21.97265625,0
1718464697,52.24609375,-39.0625,-3.41796875,62.98828125,0
1718464697,9.27734375,-47.8515625,-4.39453125,44.43359375,0
1718464697,-60.546875,-44.43359375,-8.30078125,-63.4765625,0
1718464697,-29.296875,-39.55078125,-3.90625,-52.24609375,0
1718464697,49.31640625,-36.62109375,1.46484375,58.59375,0
1718464697,23.92578125,-31.73828125,6.34765625,55.17578125,0
1718464697,-57.12890625,-27.34375,-6.8359375,-66.40625,0
1718464697,-39.55078125,-25.390625,-13.671875,-69.82421875,0
1718464697,28.80859375,-30.76171875,-3.41796875,29.296875,0
1718464697,30.76171875,-30.2734375,-2.9296875,38.57421875,0
1718464697,-21.484375,-28.80859375,-9.765625,-44.43359375,0
1718464697,-34.66796875,-33.203125,-17.578125,-76.66015625,0
1718464697,39.55078125,-38.0859375,-18.5546875,18.5546875,0
1718464697,47.36328125,-38.0859375,-9.27734375,49.31640625,0
1718464697,-25.87890625,-30.76171875,-17.578125,-23.92578125,0
1718464697,-53.7109375,-36.1328125,-29.296875,-67.3828125,0
1718464697,-6.8359375,-41.9921875,-25.390625,-27.83203125,0
1718464697,39.0625,-36.1328125,-22.94921875,35.15625,0
1718464697,0.48828125,-34.66796875,-20.5078125,9.765625,0
1718464697,-51.7578125,-44.921875,-20.01953125,-69.82421875,0
1718464697,-40.0390625,-49.31640625,-18.06640625,-65.4296875,0
1718464697,21.484375,-46.38671875,-8.30078125,17.08984375,0
1718464697,26.3671875,-39.55078125,-2.44140625,32.2265625,0
1718464697,-36.1328125,-50.29296875,-5.37109375,-37.59765625,0
1718464697,-44.43359375,-62.01171875,-9.765625,-56.640625,0
1718464697,14.6484375,-46.875,-2.9296875,2.9296875,0
1718464697,35.15625,-42.96875,-0.48828125,42.96875,0
1718464697,-21.484375,-51.7578125,-10.25390625,-13.671875,0
1718464697,-46.875,-49.31640625,-11.23046875,-59.5703125,0
1718464697,11.71875,-45.8984375,-1.953125,13.671875,0
1718464697,44.921875,-48.33984375,-0.48828125,73.73046875,0
1718464697,-9.27734375,-58.10546875,-10.25390625,17.08984375,0
1718464697,-71.77734375,-60.546875,-10.25390625,-65.4296875,0
1718464697,-30.76171875,-57.12890625,-6.34765625,-28.3203125,0
1718464697,41.50390625,-60.546875,-9.27734375,68.359375,0
1718464697,12.6953125,-63.96484375,-13.18359375,62.98828125,0
1718464697,-70.3125,-53.22265625,-13.671875,-53.22265625,0
1718464697,-47.8515625,-37.59765625,-11.71875,-59.08203125,0
1718464697,39.0625,-28.3203125,-13.671875,41.50390625,0
1718464697,38.0859375,-24.90234375,-15.625,46.875,0
1718464697,-29.296875,-26.85546875,-23.4375,-43.45703125,0
1718464697,-31.73828125,-23.4375,-24.90234375,-60.546875,0
1718464697,45.8984375,-18.5546875,-18.5546875,23.92578125,0
1718464697,62.5,-22.94921875,-16.11328125,56.15234375,0
1718464697,0,-18.06640625,-16.11328125,-16.11328125,0
1718464697,-17.578125,-21.97265625,-21.484375,-72.75390625,0
1718464697,40.52734375,-34.66796875,-25.390625,-1.953125,0
1718464697,80.56640625,-31.25,-20.99609375,80.56640625,0
1718464697,19.04296875,-32.71484375,-15.13671875,11.71875,0
1718464697,-35.15625,-33.203125,-13.18359375,-68.359375,0
1718464697,10.25390625,-31.73828125,-17.578125,-13.671875,0
1718464697,54.19921875,-28.3203125,-16.6015625,59.08203125,0
1718464697,23.4375,-27.83203125,-8.30078125,43.45703125,0
1718464697,-27.83203125,-40.52734375,-18.06640625,-30.76171875,0
1718464697,-16.6015625,-39.55078125,-19.53125,-32.2265625,0
1718464697,35.15625,-32.2265625,-7.32421875,48.828125,0
1718464697,21.484375,-24.4140625,-6.34765625,56.15234375,0
1718464697,-36.1328125,-25.390625,-20.01953125,-19.53125,0
1718464697,-25.390625,-34.66796875,-11.71875,-26.3671875,0
1718464697,32.71484375,-34.1796875,1.953125,40.52734375,0
1718464697,53.22265625,-34.1796875,-5.859375,78.125,0
1718464697,-0.9765625,-41.50390625,-5.859375,21.97265625,0
1718464697,-36.62109375,-53.22265625,-10.25390625,-30.76171875,0
1718464697,-9.27734375,-50.29296875,-8.7890625,-2.44140625,0
1718464697,28.80859375,-40.52734375,-5.859375,61.5234375,0
1718464697,-5.37109375,-42.96875,-17.578125,32.2265625,0
1718464697,-69.3359375,-46.38671875,-19.04296875,-63.96484375,0
1718464697,-29.296875,-41.015625,-15.625,-40.52734375,0
1718464697,50.78125,-36.62109375,-18.5546875,59.08203125,0
1718464697,46.38671875,-43.45703125,-21.484375,58.59375,0
1718464697,-15.13671875,-44.43359375,-25.390625,-26.3671875,0
1718464697,-19.53125,-41.50390625,-27.34375,-27.83203125,0
1718464697,43.45703125,-39.0625,-28.80859375,57.6171875,0
1718464697,72.75390625,-47.8515625,-41.9921875,94.23828125,0
1718464697,-6.34765625,-61.03515625,-38.0859375,3.90625,0
1718464697,-51.7578125,-43.45703125,-25.390625,-59.5703125,0
1718464697,17.578125,-33.69140625,-21.97265625,20.01953125,0
1718464697,54.6875,-38.57421875,-11.71875,73.2421875,0
1718464697,-14.6484375,-40.52734375,-8.7890625,-5.859375,0
1718464697,-53.22265625,-41.015625,-13.671875,-67.87109375,0
1718464697,3.90625,-45.8984375,-21.97265625,0.48828125,0
1718464697,45.8984375,-49.8046875,-18.06640625,81.54296875,0
1718464697,4.39453125,-52.734375,-17.08984375,46.875,0
1718464697,-56.15234375,-58.10546875,-16.6015625,-46.38671875,0
1718464697,-18.5546875,-45.41015625,-13.18359375,-13.18359375,0
1718464697,76.66015625,-41.015625,-15.13671875,106.9335938,0
1718464697,42.48046875,-40.52734375,-17.578125,58.10546875,0
1718464697,-28.80859375,-29.78515625,-14.16015625,-44.921875,0
1718464697,-15.625,-38.57421875,-13.671875,-40.52734375,0
1718464697,30.2734375,-45.41015625,-15.13671875,30.76171875,0
1718464697,41.9921875,-39.55078125,-9.27734375,70.80078125,0
1718464697,-28.3203125,-40.52734375,-7.8125,-9.765625,0
1718464697,-49.31640625,-41.9921875,-12.20703125,-56.640625,0
1718464697,18.5546875,-40.52734375,-2.44140625,12.6953125,0
1718464697,47.8515625,-41.015625,6.8359375,62.5,0
1718464697,-10.25390625,-40.52734375,6.8359375,10.7421875,0
1718464697,-50.29296875,-42.96875,2.9296875,-57.6171875,0
1718464697,-7.8125,-54.19921875,8.7890625,-26.3671875,0
1718464697,18.5546875,-47.8515625,15.625,13.671875,0
1718464697,-16.11328125,-41.9921875,16.11328125,-13.671875,0
1718464697,-71.77734375,-52.24609375,14.6484375,-83.49609375,0
1718464697,-67.3828125,-56.640625,15.13671875,-83.984375,0
1718464697,-12.6953125,-46.875,29.296875,-19.04296875,0
1718464697,-13.671875,-47.36328125,33.69140625,-4.8828125,0
1718464697,-71.77734375,-57.6171875,26.3671875,-75.68359375,0
1718464697,-79.58984375,-58.59375,29.296875,-93.75,0
1718464697,-13.671875,-57.12890625,36.1328125,-13.18359375,0
1718464697,11.23046875,-55.17578125,37.59765625,18.5546875,0
1718464697,-35.64453125,-57.6171875,31.73828125,-22.4609375,0
1718464697,-83.0078125,-59.08203125,31.73828125,-93.26171875,0
1718464697,-41.50390625,-48.33984375,40.52734375,-55.17578125,0
1718464697,21.484375,-38.57421875,49.8046875,41.50390625,0
1718464697,-18.06640625,-46.875,44.921875,2.44140625,0
1718464697,-73.73046875,-55.6640625,29.78515625,-83.984375,0
1718464697,-29.296875,-53.22265625,28.3203125,-48.33984375,0
1718464697,40.52734375,-49.8046875,34.66796875,54.19921875,0
1718464697,15.625,-47.8515625,27.34375,45.8984375,0
1718464697,-45.41015625,-40.0390625,18.5546875,-47.8515625,0
1718464697,-26.3671875,-41.015625,16.6015625,-48.33984375,0
1718464697,49.31640625,-43.45703125,15.13671875,49.31640625,0
1718464697,52.734375,-41.9921875,13.18359375,69.3359375,0
1718464697,-23.92578125,-28.3203125,9.765625,-47.8515625,0
1718464697,-19.53125,-27.34375,6.8359375,-72.75390625,0
1718464697,45.8984375,-34.66796875,8.30078125,25.87890625,0
1718464697,61.03515625,-35.15625,6.34765625,68.84765625,0
1718464697,3.90625,-36.62109375,-0.9765625,-9.27734375,0
1718464697,-40.0390625,-34.66796875,2.44140625,-83.984375,0
1718464697,21.97265625,-32.2265625,3.90625,-16.11328125,0
1718464697,67.3828125,-25.390625,10.25390625,53.22265625,0
1718464697,15.13671875,-19.53125,12.20703125,16.11328125,0
1718464697,-35.15625,-28.80859375,0,-46.38671875,0
1718464697,0.9765625,-46.875,-10.7421875,-16.6015625,0
1718464697,30.76171875,-46.38671875,-5.37109375,44.921875,0
1718464697,2.9296875,-34.1796875,-0.48828125,28.3203125,0
1718464697,-44.43359375,-41.9921875,-4.39453125,-53.22265625,0
1718464697,-41.50390625,-45.8984375,1.46484375,-65.91796875,0
1718464697,8.30078125,-41.50390625,4.8828125,20.5078125,0
1718464697,12.20703125,-37.109375,9.765625,47.36328125,0
1718464697,-41.50390625,-37.109375,5.37109375,-33.203125,0
1718464697,-61.5234375,-41.9921875,-5.859375,-82.03125,0
1718464697,-14.16015625,-43.45703125,0.9765625,-17.08984375,0
1718464697,9.27734375,-43.45703125,-0.48828125,35.15625,0
1718464697,-26.85546875,-51.7578125,-10.7421875,0,0
1718464697,-66.40625,-60.05859375,-8.7890625,-58.10546875,0
1718464697,-39.0625,-50.29296875,-6.34765625,-39.55078125,0
1718464697,26.85546875,-39.0625,-3.41796875,53.7109375,0
1718464697,12.20703125,-39.55078125,-6.8359375,46.875,0
1718464697,-47.36328125,-37.109375,-12.6953125,-53.7109375,0
1718464697,-24.90234375,-35.15625,-20.5078125,-51.7578125,0
1718464697,47.36328125,-39.55078125,-26.85546875,48.828125,0
1718464697,39.55078125,-35.64453125,-23.92578125,59.08203125,0
1718464697,-38.0859375,-33.69140625,-21.484375,-39.0625,0
1718464697,-44.43359375,-35.64453125,-18.06640625,-64.94140625,0
1718464697,32.71484375,-32.2265625,-15.13671875,29.296875,0
1718464697,57.6171875,-31.73828125,-14.16015625,73.2421875,0
1718464697,-16.6015625,-31.73828125,-10.7421875,-8.7890625,0
1718464697,-51.26953125,-34.66796875,-14.6484375,-72.265625,0
1718464697,16.11328125,-34.1796875,-15.625,-0.9765625,0
1718464697,61.5234375,-36.1328125,-15.625,81.54296875,0
1718464697,-21.97265625,-35.15625,-15.13671875,-5.37109375,0
1718464697,-66.89453125,-26.85546875,-16.6015625,-85.44921875,0
1718464697,-5.859375,-25.87890625,-25.87890625,-29.78515625,0
1718464697,43.45703125,-25.87890625,-21.484375,51.26953125,0
1718464697,11.71875,-30.2734375,-16.11328125,23.92578125,0
1718464697,-50.29296875,-35.64453125,-25.390625,-68.359375,0
1718464697,-21.484375,-26.85546875,-24.4140625,-50.29296875,0
1718464697,55.6640625,-27.83203125,-17.578125,55.6640625,0
1718464697,34.1796875,-32.2265625,-20.01953125,58.59375,0
1718464697,-37.109375,-24.90234375,-18.5546875,-52.24609375,0
1718464697,-21.97265625,-29.296875,-16.6015625,-41.50390625,0
1718464697,35.64453125,-38.0859375,-12.20703125,62.01171875,0
1718464697,28.3203125,-30.2734375,-6.34765625,54.19921875,0
1718464697,-13.18359375,-30.76171875,-7.8125,-11.23046875,0
1718464697,-38.0859375,-42.96875,-16.11328125,-50.29296875,0
1718464697,-3.41796875,-42.48046875,-16.11328125,-11.23046875,0
1718464697,32.2265625,-38.57421875,-11.71875,51.7578125,0
1718464697,-3.41796875,-45.41015625,-15.13671875,23.4375,0
1718464697,-38.57421875,-46.875,-18.5546875,-35.15625,0
1718464697,-1.46484375,-37.59765625,-19.04296875,0.48828125,0
1718464697,44.921875,-28.3203125,-9.27734375,72.75390625,0
1718464697,14.16015625,-28.80859375,-4.39453125,47.8515625,0
1718464697,-30.76171875,-42.48046875,-13.18359375,-27.83203125,0
1718464697,-35.64453125,-43.45703125,-5.859375,-51.7578125,0
1718464697,25.390625,-30.2734375,-1.46484375,27.34375,0
1718464697,33.69140625,-33.69140625,-11.23046875,63.96484375,0
1718464697,-40.0390625,-35.64453125,-15.13671875,-22.94921875,0
1718464697,-46.38671875,-27.83203125,-7.8125,-63.96484375,0
1718464697,11.71875,-27.34375,-10.25390625,6.34765625,0
1718464697,34.1796875,-28.80859375,-19.53125,57.6171875,0
1718464697,-13.18359375,-29.78515625,-21.97265625,-4.8828125,0
1718464697,-47.8515625,-27.83203125,-16.6015625,-61.03515625,0
1718464697,-5.859375,-22.4609375,-9.765625,-5.37109375,0
1718464697,51.7578125,-22.94921875,-9.27734375,83.0078125,0
1718464697,16.6015625,-26.3671875,-12.6953125,43.45703125,0
1718464697,-54.6875,-18.5546875,-5.37109375,-79.1015625,0
1718464697,-19.53125,-13.671875,-3.90625,-50.78125,0
1718464697,46.38671875,-16.6015625,-6.8359375,54.19921875,0
1718464697,20.99609375,-21.97265625,-8.7890625,39.55078125,0
1718464697,-49.8046875,-24.90234375,-12.20703125,-62.5,0
1718464697,-37.59765625,-22.4609375,-10.7421875,-65.91796875,0
1718464697,34.1796875,-20.99609375,-8.7890625,33.203125,0
1718464697,35.64453125,-21.97265625,-10.25390625,44.921875,0
1718464697,-27.83203125,-22.4609375,-13.671875,-37.59765625,0
1718464697,-38.57421875,-18.06640625,-19.04296875,-65.4296875,0
1718464697,36.62109375,-16.6015625,-19.53125,25.87890625,0
1718464697,48.33984375,-12.20703125,-6.34765625,67.87109375,0
1718464697,-16.6015625,-9.765625,-4.8828125,-7.32421875,0
1718464697,-38.57421875,-14.16015625,-12.20703125,-63.4765625,0
1718464697,11.23046875,-19.53125,-12.6953125,-15.625,0
1718464697,49.31640625,-14.16015625,-11.71875,54.19921875,0
1718464697,15.625,-8.30078125,-14.16015625,20.01953125,0
1718464697,-41.015625,-19.53125,-23.92578125,-70.80078125,0
1718464697,-32.2265625,-28.3203125,-23.92578125,-50.78125,0
1718464697,24.90234375,-23.92578125,-14.6484375,41.9921875,0
1718464698,11.71875,-28.80859375,-23.4375,35.64453125,0
1718464698,-57.6171875,-37.59765625,-33.203125,-46.875,0
1718464698,-65.91796875,-51.26953125,-31.25,-57.6171875,0
1718464698,-9.27734375,-40.52734375,-16.6015625,4.39453125,0
1718464698,20.5078125,-21.484375,-3.90625,46.875,0
1718464698,-24.90234375,-24.90234375,-12.20703125,-1.953125,0
1718464698,-60.05859375,-37.59765625,-20.01953125,-55.17578125,0
1718464698,-12.20703125,-39.55078125,-10.25390625,-3.90625,0
1718464698,28.80859375,-33.69140625,-7.8125,55.6640625,0
1718464698,-13.671875,-32.2265625,-17.08984375,9.765625,0
1718464698,-75.1953125,-37.59765625,-18.5546875,-77.63671875,0
1718464698,-44.921875,-41.015625,-16.6015625,-40.52734375,0
1718464698,26.85546875,-37.59765625,-15.13671875,74.21875,0
1718464698,13.671875,-42.48046875,-10.25390625,67.3828125,0
1718464698,-64.453125,-42.96875,-10.25390625,-58.59375,0
1718464698,-44.921875,-35.15625,-8.7890625,-65.91796875,0
1718464698,40.52734375,-39.55078125,-3.90625,43.45703125,0
1718464698,32.2265625,-45.8984375,-9.765625,43.45703125,0
1718464698,-44.921875,-43.9453125,-20.5078125,-64.453125,0
1718464698,-47.36328125,-42.48046875,-21.484375,-80.56640625,0
1718464698,28.3203125,-41.50390625,-19.04296875,5.37109375,0
1718464698,47.36328125,-38.0859375,-15.625,39.55078125,0
1718464698,-13.18359375,-36.62109375,-20.5078125,-29.296875,0
1718464698,-42.96875,-33.203125,-20.99609375,-81.54296875,0
1718464698,19.53125,-27.34375,-17.578125,-3.41796875,0
1718464698,62.01171875,-33.203125,-18.5546875,81.54296875,0
1718464698,-7.8125,-28.80859375,-8.7890625,8.30078125,0
1718464698,-55.17578125,-20.01953125,-4.39453125,-67.87109375,0
1718464698,-6.34765625,-25.390625,-11.71875,-8.7890625,0
1718464698,35.64453125,-22.94921875,-16.11328125,55.17578125,0
1718464698,-2.9296875,-17.578125,-16.11328125,16.11328125,0
1718464698,-55.17578125,-24.90234375,-20.01953125,-52.24609375,0
1718464698,-38.0859375,-28.3203125,-14.6484375,-50.78125,0
1718464698,18.06640625,-24.4140625,-6.34765625,26.85546875,0
1718464698,17.08984375,-19.04296875,-3.90625,51.7578125,0
1718464698,-37.59765625,-22.4609375,-12.6953125,-19.04296875,0
1718464698,-30.76171875,-37.109375,-16.6015625,-29.78515625,0
1718464698,24.4140625,-34.1796875,-3.90625,36.62109375,0
1718464698,43.45703125,-20.99609375,-0.9765625,70.80078125,0
1718464698,-6.8359375,-23.4375,-6.34765625,15.625,0
1718464698,-33.69140625,-40.0390625,-11.23046875,-27.83203125,0
1718464698,-0.48828125,-30.76171875,-6.8359375,-6.34765625,0
1718464698,42.48046875,-16.6015625,2.9296875,53.22265625,0
1718464698,0.9765625,-27.83203125,-0.48828125,24.4140625,0
1718464698,-67.3828125,-30.76171875,-9.765625,-78.125,0
1718464698,-43.9453125,-28.80859375,-10.25390625,-60.05859375,0
1718464698,23.4375,-31.73828125,-6.8359375,40.52734375,0
1718464698,17.578125,-33.203125,-6.8359375,36.62109375,0
1718464698,-40.0390625,-42.48046875,-9.765625,-54.6875,0
1718464698,-40.0390625,-40.0390625,-9.765625,-60.05859375,0
1718464698,24.4140625,-28.3203125,-3.90625,22.4609375,0
1718464698,45.41015625,-35.64453125,1.953125,70.80078125,0
1718464698,-25.390625,-48.828125,-2.44140625,2.44140625,0
1718464698,-69.3359375,-39.0625,-2.44140625,-78.61328125,0
1718464698,-3.41796875,-31.73828125,2.9296875,-4.8828125,0
1718464698,32.71484375,-34.66796875,4.39453125,68.359375,0
1718464698,-25.87890625,-33.203125,7.32421875,-5.859375,0
1718464698,-67.3828125,-29.296875,4.8828125,-80.078125,0
1718464698,-16.11328125,-30.2734375,2.44140625,-22.4609375,0
1718464698,49.31640625,-27.83203125,7.32421875,64.453125,0
1718464698,20.5078125,-27.34375,6.34765625,36.62109375,0
1718464698,-43.45703125,-32.2265625,1.953125,-51.26953125,0
1718464698,-21.97265625,-29.78515625,4.39453125,-45.8984375,0
1718464698,62.5,-32.71484375,2.44140625,58.59375,0
1718464698,33.69140625,-28.3203125,4.39453125,30.2734375,0
1718464698,-44.921875,-22.4609375,3.90625,-78.125,0
1718464698,-33.203125,-30.2734375,-0.48828125,-70.80078125,0
1718464698,28.80859375,-30.2734375,-0.48828125,14.16015625,0
1718464698,33.203125,-24.4140625,1.46484375,36.62109375,0
1718464698,-23.92578125,-23.92578125,-1.46484375,-34.66796875,0
1718464698,-41.015625,-33.203125,-13.671875,-78.125,0
1718464698,18.06640625,-42.48046875,-16.6015625,-10.25390625,0
1718464698,62.98828125,-37.109375,1.46484375,59.5703125,0
1718464698,0.48828125,-29.296875,9.27734375,9.27734375,0
1718464698,-47.8515625,-33.69140625,-5.859375,-49.8046875,0
1718464698,-0.9765625,-44.921875,-6.34765625,6.34765625,0
1718464698,33.203125,-32.2265625,13.18359375,62.5,0
1718464698,6.8359375,-17.08984375,16.11328125,33.69140625,0
1718464698,-27.34375,-21.97265625,13.671875,-29.78515625,0
1718464698,-5.859375,-28.3203125,13.671875,-18.5546875,0
1718464698,44.921875,-24.90234375,10.7421875,58.10546875,0
1718464698,47.8515625,-21.97265625,12.20703125,71.2890625,0
1718464698,-11.23046875,-25.390625,6.34765625,-14.6484375,0
1718464698,-16.6015625,-22.94921875,5.859375,-52.734375,0
1718464698,53.7109375,-19.53125,12.20703125,27.83203125,0
1718464698,62.5,-28.3203125,8.7890625,56.15234375,0
1718464698,8.7890625,-38.57421875,-1.46484375,-5.859375,0
1718464698,-44.43359375,-41.015625,-5.37109375,-93.75,0
1718464698,-20.5078125,-34.1796875,-0.48828125,-65.91796875,0
1718464698,30.2734375,-29.78515625,3.41796875,22.94921875,0
1718464698,-10.25390625,-37.109375,-2.44140625,-19.04296875,0
1718464698,-62.01171875,-42.48046875,-8.7890625,-100.5859375,0
1718464698,-20.5078125,-39.55078125,-3.41796875,-50.78125,0
1718464698,31.25,-41.015625,0,52.734375,0
1718464698,-10.7421875,-45.41015625,0.48828125,28.3203125,0
1718464698,-75.1953125,-47.36328125,-0.48828125,-60.05859375,0
1718464698,-55.17578125,-43.45703125,-0.9765625,-42.96875,0
1718464698,19.53125,-42.48046875,8.30078125,55.17578125,0
1718464698,9.765625,-41.9921875,17.08984375,62.5,0
1718464698,-67.3828125,-34.66796875,20.01953125,-43.45703125,0
1718464698,-67.87109375,-42.48046875,7.32421875,-61.03515625,0
1718464698,-1.46484375,-48.33984375,6.34765625,25.87890625,0
1718464698,22.94921875,-41.9921875,20.01953125,70.80078125,0
1718464698,-29.78515625,-44.43359375,10.7421875,-0.9765625,0
1718464698,-62.5,-45.8984375,5.859375,-74.21875,0
1718464698,-0.9765625,-43.9453125,4.39453125,-9.27734375,0
1718464698,45.41015625,-40.0390625,3.90625,62.98828125,0
1718464698,11.23046875,-34.1796875,1.46484375,19.53125,0
1718464698,-28.80859375,-40.0390625,-7.8125,-50.78125,0
1718464698,12.20703125,-47.8515625,-7.8125,-5.37109375,0
1718464698,55.6640625,-44.43359375,-0.9765625,65.4296875,0
1718464698,33.69140625,-39.0625,-3.90625,38.57421875,0
1718464698,-26.85546875,-43.9453125,-9.27734375,-50.29296875,0
1718464698,-28.3203125,-47.8515625,-10.7421875,-52.734375,0
1718464698,32.71484375,-42.48046875,-2.9296875,26.85546875,0
1718464698,36.1328125,-36.1328125,7.8125,46.38671875,0
1718464698,-20.99609375,-41.9921875,-3.41796875,-15.13671875,0
1718464698,-51.26953125,-47.8515625,-14.16015625,-61.03515625,0
1718464698,-4.39453125,-46.38671875,-2.44140625,-2.9296875,0
1718464698,25.87890625,-45.8984375,9.765625,52.734375,0
1718464698,-26.85546875,-60.546875,0,3.41796875,0
1718464698,-73.73046875,-70.3125,-5.37109375,-61.5234375,0
1718464698,-43.9453125,-59.5703125,1.46484375,-32.2265625,0
1718464698,17.08984375,-50.29296875,5.859375,48.828125,0
1718464698,4.8828125,-51.26953125,3.41796875,38.57421875,0
1718464698,-57.12890625,-56.640625,0.48828125,-40.52734375,0
1718464698,-40.52734375,-62.5,0.9765625,-34.1796875,0
1718464698,25.87890625,-60.05859375,0.48828125,53.22265625,0
1718464698,5.37109375,-54.6875,1.953125,49.31640625,0
1718464698,-78.125,-59.08203125,4.39453125,-43.9453125,0
1718464698,-83.984375,-61.03515625,3.90625,-59.08203125,0
1718464698,-7.8125,-58.10546875,5.37109375,30.76171875,0
1718464698,8.30078125,-61.03515625,4.8828125,64.94140625,0
1718464698,-71.2890625,-63.96484375,0.48828125,-32.71484375,0
1718464698,-93.75,-57.12890625,-1.46484375,-88.8671875,0
1718464698,-11.71875,-47.8515625,-0.9765625,-11.23046875,0
1718464698,45.41015625,-48.33984375,-2.9296875,74.70703125,0
1718464698,-14.6484375,-45.41015625,-2.9296875,-0.48828125,0
1718464698,-51.7578125,-35.64453125,-0.9765625,-84.9609375,0
1718464698,17.08984375,-33.69140625,-3.41796875,-25.87890625,0
1718464698,78.61328125,-45.8984375,-4.8828125,47.8515625,0
1718464698,21.484375,-47.8515625,-5.37109375,1.953125,0
1718464698,-51.7578125,-44.921875,-6.8359375,-87.40234375,0
1718464698,-16.11328125,-53.7109375,-11.23046875,-67.3828125,0
1718464698,35.15625,-58.59375,-8.30078125,20.01953125,0
1718464698,9.27734375,-55.17578125,-8.30078125,16.11328125,0
1718464698,-61.5234375,-56.15234375,-13.18359375,-74.70703125,0
1718464698,-61.03515625,-65.4296875,-21.484375,-83.49609375,0
1718464698,13.671875,-66.89453125,-18.5546875,0.48828125,0
1718464698,28.80859375,-54.19921875,-4.8828125,33.203125,0
1718464698,-39.55078125,-47.8515625,0.48828125,-31.73828125,0
1718464698,-67.3828125,-56.15234375,-9.27734375,-65.4296875,0
1718464698,-22.4609375,-66.40625,-10.25390625,-11.23046875,0
1718464698,3.90625,-60.546875,1.46484375,32.2265625,0
1718464698,-55.17578125,-58.10546875,-7.8125,-23.92578125,0
1718464698,-111.8164063,-60.05859375,-11.71875,-98.14453125,0
1718464698,-98.6328125,-60.05859375,-11.23046875,-90.33203125,0
1718464698,-83.984375,-53.22265625,-7.32421875,-56.15234375,0
1718464698,-145.0195313,-48.33984375,-3.41796875,-110.3515625,0
1718464698,-242.1875,-59.08203125,-20.01953125,-225.0976563,0
1718464698,-289.5507813,-61.03515625,-17.578125,-294.4335938,0
1718464698,-240.234375,-50.78125,3.41796875,-246.09375,0
1718464698,-253.4179688,-57.6171875,8.7890625,-234.8632813,0
1718464698,-351.5625,-65.4296875,17.578125,-340.3320313,0
1718464698,-373.046875,-61.5234375,32.2265625,-375.4882813,0
1718464698,-303.7109375,-57.6171875,43.45703125,-294.4335938,0
1718464698,-270.0195313,-52.734375,49.8046875,-254.3945313,0
1718464698,-332.03125,-53.7109375,63.4765625,-327.6367188,0
1718464698,-367.6757813,-56.640625,75.1953125,-378.90625,0
1718464698,-311.0351563,-55.17578125,87.40234375,-310.0585938,0
1718464698,-242.1875,-48.33984375,107.9101563,-218.75,0
1718464698,-285.15625,-58.10546875,117.6757813,-260.7421875,0
1718464698,-366.6992188,-59.5703125,118.1640625,-379.3945313,0
1718464698,-330.078125,-57.6171875,114.2578125,-343.2617188,0
1718464698,-248.046875,-68.359375,114.7460938,-231.4453125,0
1718464698,-270.5078125,-71.77734375,112.3046875,-253.4179688,0
1718464698,-347.65625,-75.1953125,104.9804688,-355.46875,0
1718464698,-325.1953125,-84.9609375,98.6328125,-343.2617188,0
1718464698,-240.234375,-91.796875,97.65625,-230.46875,0
1718464698,-226.0742188,-85.9375,94.7265625,-200.1953125,0
1718464698,-292.4804688,-86.42578125,67.87109375,-287.109375,0
1718464698,-322.265625,-94.7265625,48.33984375,-333.0078125,0
1718464698,-246.09375,-94.7265625,50.78125,-242.1875,0
1718464698,-216.3085938,-73.73046875,57.6171875,-191.40625,0
1718464698,-252.9296875,-52.734375,63.96484375,-241.6992188,0
1718464698,-261.71875,-45.41015625,66.40625,-281.7382813,0
1718464698,-212.4023438,-35.64453125,74.70703125,-230.46875,0
1718464698,-150.8789063,-26.85546875,81.0546875,-141.6015625,0
1718464698,-171.3867188,-24.90234375,71.2890625,-158.203125,0
1718464698,-209.9609375,-24.4140625,64.453125,-236.328125,0
1718464698,-185.546875,-23.4375,65.4296875,-215.8203125,0
1718464698,-114.7460938,-19.53125,63.96484375,-112.3046875,0
1718464698,-113.7695313,-21.484375,38.57421875,-95.703125,0
1718464698,-166.015625,-29.296875,13.18359375,-175.78125,0
1718464698,-156.7382813,-37.59765625,12.6953125,-183.1054688,0
1718464698,-96.19140625,-28.80859375,16.11328125,-111.328125,0
1718464698,-71.2890625,-23.4375,17.08984375,-72.265625,0
1718464698,-102.5390625,-32.2265625,6.8359375,-112.7929688,0
1718464698,-112.3046875,-35.15625,-3.90625,-150.8789063,0
1718464698,-56.15234375,-36.62109375,-6.8359375,-86.9140625,0
1718464698,-1.46484375,-42.96875,-16.11328125,4.39453125,0
1718464698,-39.0625,-51.7578125,-19.53125,-24.90234375,0
1718464698,-89.35546875,-55.6640625,-19.04296875,-99.12109375,0
1718464698,-31.25,-51.7578125,-19.04296875,-38.0859375,0
1718464698,48.828125,-54.19921875,-19.04296875,77.1484375,0
1718464698,41.015625,-69.82421875,-21.484375,89.84375,0
1718464698,-18.5546875,-69.82421875,-20.5078125,-5.859375,0
1718464698,11.23046875,-58.59375,-26.3671875,-2.44140625,0
1718464698,98.14453125,-60.546875,-31.25,114.2578125,0
1718464698,93.26171875,-66.89453125,-33.203125,131.8359375,0
1718464698,30.2734375,-62.98828125,-34.66796875,51.26953125,0
1718464698,41.015625,-56.640625,-38.57421875,52.734375,0
1718464698,122.5585938,-61.5234375,-37.59765625,142.0898438,0
1718464698,147.4609375,-66.89453125,-31.25,171.3867188,0
1718464698,79.58984375,-65.91796875,-38.0859375,101.0742188,0
1718464698,52.734375,-60.05859375,-41.50390625,50.29296875,0
1718464698,134.765625,-62.5,-41.9921875,137.2070313,0
1718464698,183.1054688,-68.359375,-41.015625,222.65625,0
1718464698,109.8632813,-57.6171875,-32.71484375,140.625,0
1718464698,58.10546875,-56.15234375,-44.43359375,55.17578125,0
1718464698,101.5625,-62.98828125,-50.78125,100.5859375,0
1718464698,146.9726563,-64.453125,-45.41015625,174.3164063,0
1718464698,111.8164063,-68.84765625,-52.734375,147.4609375,0
1718464698,53.7109375,-72.265625,-59.08203125,54.19921875,0
1718464698,64.453125,-71.77734375,-64.94140625,41.50390625,0
1718464698,124.5117188,-67.3828125,-67.3828125,117.1875,0
1718464698,121.5820313,-62.5,-71.2890625,125,0
1718464698,56.15234375,-63.96484375,-80.56640625,50.29296875,0
1718464698,61.5234375,-71.77734375,-78.125,37.109375,0
1718464698,114.2578125,-69.3359375,-69.3359375,100.5859375,0
1718464698,116.6992188,-58.59375,-65.4296875,130.3710938,0
1718464698,67.87109375,-53.7109375,-70.3125,76.171875,0
1718464698,55.6640625,-60.05859375,-75.1953125,52.24609375,0
1718464698,77.1484375,-53.7109375,-64.453125,79.1015625,0
1718464698,103.515625,-48.828125,-58.10546875,123.046875,0
1718464698,65.91796875,-57.12890625,-63.96484375,98.14453125,0
1718464698,5.37109375,-58.59375,-64.94140625,7.8125,0
1718464698,25.390625,-55.6640625,-64.453125,20.5078125,0
1718464698,84.47265625,-53.7109375,-58.10546875,109.375,0
1718464698,77.63671875,-49.8046875,-59.08203125,102.5390625,0
1718464698,14.16015625,-50.78125,-68.84765625,13.671875,0
1718464698,13.671875,-57.6171875,-67.87109375,-2.44140625,0
1718464698,73.73046875,-55.6640625,-66.40625,75.68359375,0
1718464698,84.9609375,-62.01171875,-66.40625,117.6757813,0
1718464698,21.97265625,-67.87109375,-70.3125,42.96875,0
1718464698,-20.99609375,-54.19921875,-62.98828125,-29.296875,0
1718464698,42.48046875,-53.22265625,-55.17578125,47.8515625,0
1718464698,86.9140625,-60.05859375,-60.546875,121.09375,0
1718464698,22.4609375,-50.78125,-61.5234375,49.31640625,0
1718464698,-23.4375,-43.45703125,-59.08203125,-29.296875,0
1718464698,29.296875,-48.33984375,-50.78125,20.5078125,0
1718464698,82.03125,-48.33984375,-50.29296875,101.0742188,0
1718464698,36.1328125,-43.45703125,-51.26953125,69.3359375,0
1718464698,-20.99609375,-43.9453125,-52.24609375,-19.53125,0
1718464698,9.765625,-40.52734375,-55.6640625,-9.765625,0
1718464698,89.84375,-45.8984375,-58.59375,104.0039063,0
1718464699,57.6171875,-43.9453125,-53.22265625,71.77734375,0
1718464699,-13.18359375,-35.64453125,-54.19921875,-35.64453125,0
1718464699,2.9296875,-35.64453125,-57.6171875,-25.87890625,0
1718464699,61.5234375,-30.2734375,-47.8515625,51.26953125,0
1718464699,62.01171875,-23.92578125,-41.50390625,71.77734375,0
1718464699,-3.90625,-28.80859375,-50.78125,3.41796875,0
1718464699,-25.87890625,-34.1796875,-56.15234375,-33.69140625,0
1718464699,23.92578125,-31.73828125,-49.8046875,24.4140625,0
1718464699,59.08203125,-27.34375,-44.921875,83.0078125,0
1718464699,9.27734375,-29.78515625,-49.8046875,26.3671875,0
1718464699,-36.1328125,-36.62109375,-52.24609375,-38.0859375,0
1718464699,3.41796875,-41.50390625,-50.78125,11.71875,0
1718464699,32.2265625,-29.78515625,-37.59765625,58.59375,0
1718464699,7.32421875,-22.94921875,-30.2734375,27.83203125,0
1718464699,-27.83203125,-32.71484375,-43.9453125,-44.921875,0
1718464699,-7.8125,-34.66796875,-42.96875,-40.0390625,0
1718464699,49.31640625,-28.3203125,-35.15625,35.64453125,0
1718464699,45.8984375,-17.578125,-32.71484375,45.41015625,0
1718464699,-9.27734375,-15.13671875,-41.9921875,-24.4140625,0
1718464699,-25.87890625,-22.94921875,-47.36328125,-53.22265625,0
1718464699,38.0859375,-28.3203125,-41.50390625,28.3203125,0
1718464699,56.640625,-36.62109375,-43.9453125,66.40625,0
1718464699,-6.8359375,-47.36328125,-52.734375,-0.48828125,0
1718464699,-44.921875,-38.0859375,-47.36328125,-70.80078125,0
1718464699,3.90625,-33.203125,-44.921875,-27.83203125,0
1718464699,55.6640625,-42.96875,-50.29296875,61.03515625,0
1718464699,18.06640625,-50.78125,-51.26953125,43.45703125,0
1718464699,-66.40625,-52.24609375,-51.7578125,-74.21875,0
1718464699,-41.9921875,-49.31640625,-48.33984375,-52.24609375,0
1718464699,31.73828125,-48.828125,-44.921875,53.7109375,0
1718464699,-0.48828125,-49.8046875,-46.875,32.71484375,0
1718464699,-59.5703125,-49.8046875,-47.8515625,-41.015625,0
1718464699,-40.52734375,-47.8515625,-45.8984375,-42.48046875,0
1718464699,20.5078125,-46.875,-44.921875,35.15625,0
1718464699,11.23046875,-53.22265625,-52.734375,62.01171875,0
1718464699,-68.84765625,-48.828125,-52.734375,-40.52734375,0
1718464699,-72.75390625,-45.8984375,-48.828125,-75.68359375,0
1718464699,-1.953125,-50.29296875,-52.734375,13.18359375,0
1718464699,30.2734375,-48.33984375,-45.41015625,57.6171875,0
1718464699,-15.625,-52.734375,-41.50390625,-4.8828125,0
1718464699,-52.734375,-51.26953125,-48.828125,-68.84765625,0
1718464699,6.8359375,-37.109375,-47.36328125,-11.71875,0
1718464699,49.31640625,-34.66796875,-44.43359375,52.734375,0
1718464699,-11.23046875,-44.43359375,-41.9921875,1.953125,0
1718464699,-60.546875,-51.26953125,-44.43359375,-59.5703125,0
1718464699,-6.34765625,-52.24609375,-45.41015625,5.859375,0
1718464699,34.66796875,-50.78125,-42.96875,67.87109375,0
1718464699,-0.48828125,-41.50390625,-43.9453125,29.296875,0
1718464699,-44.43359375,-38.0859375,-47.8515625,-40.0390625,0
1718464699,-35.64453125,-41.015625,-51.26953125,-36.62109375,0
1718464699,21.97265625,-36.1328125,-43.9453125,45.8984375,0
1718464699,29.78515625,-32.71484375,-48.828125,70.3125,0
1718464699,-25.390625,-38.57421875,-58.10546875,-3.90625,0
1718464699,-41.015625,-41.50390625,-58.59375,-54.19921875,0
1718464699,22.94921875,-34.66796875,-53.7109375,9.27734375,0
1718464699,39.55078125,-29.78515625,-43.45703125,60.05859375,0
1718464699,-7.32421875,-35.15625,-43.45703125,16.6015625,0
1718464699,-45.41015625,-41.9921875,-42.48046875,-50.29296875,0
1718464699,-18.06640625,-28.80859375,-35.64453125,-27.83203125,0
1718464699,41.015625,-19.04296875,-30.2734375,60.05859375,0
1718464699,15.625,-25.87890625,-37.59765625,50.78125,0
1718464699,-49.31640625,-23.4375,-43.45703125,-43.45703125,0
1718464699,-19.53125,-21.484375,-40.52734375,-33.203125,0
1718464699,54.19921875,-20.5078125,-31.25,74.21875,0
1718464699,33.69140625,-18.5546875,-27.34375,70.80078125,0
1718464699,-39.0625,-23.4375,-34.1796875,-28.80859375,0
1718464699,-32.2265625,-28.80859375,-34.1796875,-36.1328125,0
1718464699,39.55078125,-27.34375,-32.2265625,49.31640625,0
1718464699,67.87109375,-32.71484375,-36.1328125,92.7734375,0
1718464699,-13.18359375,-32.2265625,-33.203125,6.34765625,0
1718464699,-49.31640625,-21.484375,-33.69140625,-54.19921875,0
1718464699,32.2265625,-20.01953125,-40.0390625,28.3203125,0
1718464699,81.54296875,-24.4140625,-38.0859375,98.6328125,0
1718464699,5.859375,-20.01953125,-33.203125,7.32421875,0
1718464699,-50.78125,-18.06640625,-31.73828125,-79.58984375,0
1718464699,0.9765625,-17.578125,-32.71484375,-31.25,0
1718464699,49.8046875,-19.53125,-29.78515625,36.1328125,0
1718464699,17.578125,-21.97265625,-25.390625,14.6484375,0
1718464699,-36.62109375,-23.4375,-27.34375,-60.546875,0
1718464699,-5.859375,-20.5078125,-25.390625,-48.33984375,0
1718464699,65.91796875,-16.6015625,-26.85546875,38.57421875,0
1718464699,41.50390625,-16.6015625,-29.296875,37.109375,0
1718464699,-32.71484375,-18.06640625,-30.76171875,-55.6640625,0
1718464699,-18.5546875,-21.484375,-35.15625,-58.59375,0
1718464699,47.36328125,-26.3671875,-33.203125,41.015625,0
1718464699,36.62109375,-14.6484375,-22.4609375,48.828125,0
1718464699,-9.27734375,-8.30078125,-23.4375,-10.25390625,0
1718464699,-29.78515625,-24.90234375,-29.78515625,-43.45703125,0
1718464699,2.9296875,-29.78515625,-23.92578125,3.41796875,0
1718464699,45.41015625,-25.390625,-20.01953125,73.2421875,0
1718464699,11.71875,-28.80859375,-24.90234375,39.0625,0
1718464699,-30.76171875,-23.92578125,-30.76171875,-39.55078125,0
1718464699,9.765625,-17.08984375,-29.78515625,-5.859375,0
1718464699,57.12890625,-18.5546875,-23.4375,73.73046875,0
1718464699,32.2265625,-15.625,-23.4375,57.6171875,0
1718464699,-8.7890625,-24.4140625,-32.2265625,-11.71875,0
1718464699,-23.92578125,-28.80859375,-27.83203125,-31.73828125,0
1718464699,27.83203125,-18.5546875,-22.4609375,33.203125,0
1718464699,48.828125,-17.08984375,-31.25,54.6875,0
1718464699,-17.08984375,-21.484375,-33.203125,-27.34375,0
1718464699,-49.8046875,-24.90234375,-29.78515625,-72.75390625,0
1718464699,2.44140625,-27.34375,-22.94921875,-1.953125,0
1718464699,31.73828125,-28.3203125,-23.92578125,54.19921875,0
1718464699,-34.1796875,-30.76171875,-30.76171875,-20.99609375,0
1718464699,-75.1953125,-32.2265625,-30.76171875,-93.75,0
1718464699,-14.6484375,-29.296875,-34.66796875,-31.73828125,0
1718464699,53.7109375,-29.78515625,-32.2265625,58.10546875,0
1718464699,8.30078125,-32.2265625,-27.34375,24.90234375,0
1718464699,-71.2890625,-23.4375,-28.80859375,-85.44921875,0
1718464699,-34.1796875,-15.625,-32.71484375,-60.546875,0
1718464699,45.41015625,-23.4375,-34.66796875,47.8515625,0
1718464699,18.5546875,-30.2734375,-31.25,27.83203125,0
1718464699,-66.40625,-33.203125,-31.25,-72.265625,0
1718464699,-45.8984375,-36.62109375,-34.1796875,-55.17578125,0
1718464699,27.83203125,-31.73828125,-30.2734375,46.875,0
1718464699,19.53125,-23.92578125,-19.04296875,56.15234375,0
1718464699,-35.15625,-29.78515625,-25.87890625,-19.53125,0
1718464699,-37.109375,-32.71484375,-28.80859375,-40.52734375,0
1718464699,40.52734375,-36.1328125,-27.34375,47.36328125,0
1718464699,46.875,-37.109375,-29.78515625,69.3359375,0
1718464699,-28.3203125,-30.76171875,-27.34375,-18.5546875,0
1718464699,-55.17578125,-26.85546875,-30.76171875,-78.61328125,0
1718464699,-2.9296875,-27.34375,-32.2265625,-28.3203125,0
1718464699,39.55078125,-23.92578125,-19.04296875,44.43359375,0
1718464699,-1.46484375,-22.4609375,-20.99609375,4.39453125,0
1718464699,-48.828125,-29.78515625,-37.59765625,-73.2421875,0
1718464699,-29.78515625,-33.203125,-37.109375,-58.59375,0
1718464699,28.3203125,-24.4140625,-24.90234375,25.87890625,0
1718464699,20.5078125,-24.90234375,-19.53125,37.109375,0
1718464699,-55.17578125,-33.69140625,-26.3671875,-59.5703125,0
1718464699,-67.3828125,-30.2734375,-32.71484375,-88.8671875,0
1718464699,1.953125,-18.06640625,-22.94921875,-2.44140625,0
1718464699,20.01953125,-9.765625,-13.18359375,48.828125,0
1718464699,-34.1796875,-22.94921875,-21.484375,-11.23046875,0
1718464699,-58.10546875,-41.50390625,-29.296875,-66.40625,0
1718464699,-8.7890625,-34.66796875,-23.92578125,-18.5546875,0
1718464699,24.90234375,-21.97265625,-16.6015625,43.45703125,0
1718464699,-13.18359375,-27.83203125,-24.90234375,0,0
1718464699,-62.5,-36.1328125,-33.69140625,-82.51953125,0
1718464699,-15.625,-35.15625,-30.2734375,-34.1796875,0
1718464699,62.98828125,-33.203125,-25.390625,66.40625,0
1718464699,47.8515625,-33.69140625,-20.01953125,62.5,0
1718464699,-35.64453125,-27.83203125,-17.08984375,-47.8515625,0
1718464699,-33.203125,-22.4609375,-16.11328125,-59.5703125,0
1718464699,48.828125,-21.97265625,-17.08984375,43.9453125,0
1718464699,32.2265625,-29.78515625,-23.92578125,44.43359375,0
1718464699,-57.6171875,-39.0625,-33.203125,-62.98828125,0
1718464699,-65.4296875,-42.48046875,-37.59765625,-80.078125,0
1718464699,2.44140625,-40.0390625,-36.62109375,10.25390625,0
1718464699,20.99609375,-33.69140625,-28.3203125,39.55078125,0
1718464699,-45.41015625,-33.69140625,-31.25,-35.15625,0
1718464699,-77.63671875,-37.109375,-38.57421875,-84.9609375,0
1718464699,-0.48828125,-37.59765625,-35.64453125,-7.8125,0
1718464699,39.55078125,-40.0390625,-34.1796875,58.10546875,0
1718464699,-30.76171875,-29.78515625,-36.1328125,-12.20703125,0
1718464699,-66.40625,-16.11328125,-36.62109375,-79.58984375,0
1718464699,-8.7890625,-16.11328125,-25.390625,-33.69140625,0
1718464699,34.66796875,-21.97265625,-23.92578125,41.015625,0
1718464699,-6.34765625,-25.390625,-31.25,19.04296875,0
1718464699,-57.6171875,-34.66796875,-37.109375,-61.5234375,0
1718464699,-28.80859375,-40.52734375,-39.0625,-48.33984375,0
1718464699,36.62109375,-30.2734375,-24.90234375,42.48046875,0
1718464699,34.1796875,-18.5546875,-17.08984375,46.38671875,0
1718464699,-16.6015625,-26.85546875,-23.4375,-26.85546875,0
1718464699,-23.92578125,-36.1328125,-28.3203125,-44.43359375,0
1718464699,21.484375,-27.34375,-20.01953125,15.13671875,0
1718464699,36.62109375,-18.06640625,-18.06640625,48.828125,0
1718464699,-7.32421875,-23.4375,-24.4140625,-8.30078125,0
1718464699,-31.73828125,-35.64453125,-28.80859375,-41.015625,0
1718464699,-12.6953125,-35.64453125,-23.4375,-6.8359375,0
1718464699,32.71484375,-24.90234375,-15.625,49.31640625,0
1718464699,10.25390625,-25.390625,-15.13671875,24.90234375,0
1718464699,-57.12890625,-31.73828125,-24.90234375,-63.4765625,0
1718464699,-40.52734375,-26.85546875,-28.3203125,-51.26953125,0
1718464699,24.90234375,-24.4140625,-23.4375,42.96875,0
1718464699,8.30078125,-29.296875,-19.53125,34.66796875,0
1718464699,-52.24609375,-31.25,-23.92578125,-54.6875,0
1718464699,-55.6640625,-28.80859375,-21.484375,-65.4296875,0
1718464699,4.39453125,-27.34375,-11.23046875,8.30078125,0
1718464699,28.3203125,-28.3203125,-16.6015625,42.96875,0
1718464699,-41.9921875,-29.296875,-23.92578125,-28.3203125,0
1718464699,-80.078125,-27.83203125,-28.3203125,-100.5859375,0
1718464699,-6.34765625,-26.85546875,-33.69140625,-22.94921875,0
1718464699,30.2734375,-27.34375,-30.76171875,48.33984375,0
1718464699,-20.5078125,-18.06640625,-32.71484375,-14.16015625,0
1718464699,-58.59375,-14.16015625,-34.66796875,-88.8671875,0
1718464699,-14.16015625,-23.92578125,-31.25,-35.64453125,0
1718464699,37.109375,-23.4375,-27.34375,51.7578125,0
1718464699,7.32421875,-26.3671875,-28.80859375,27.34375,0
1718464699,-57.12890625,-35.15625,-31.73828125,-64.453125,0
1718464699,-37.59765625,-35.15625,-31.73828125,-48.33984375,0
1718464699,43.9453125,-39.55078125,-30.76171875,79.1015625,0
1718464699,11.71875,-38.0859375,-26.85546875,59.5703125,0
1718464699,-71.77734375,-33.203125,-27.83203125,-58.59375,0
1718464699,-55.17578125,-37.109375,-35.64453125,-59.5703125,0
1718464699,15.625,-38.57421875,-31.25,27.83203125,0
1718464699,19.53125,-31.73828125,-17.578125,51.26953125,0
1718464699,-37.109375,-27.83203125,-22.94921875,-23.4375,0
1718464699,-51.26953125,-33.203125,-36.62109375,-67.87109375,0
1718464699,7.8125,-36.1328125,-39.0625,-7.8125,0
1718464699,42.48046875,-37.59765625,-35.64453125,65.91796875,0
1718464699,-17.578125,-31.73828125,-39.0625,17.08984375,0
1718464699,-60.546875,-33.203125,-46.38671875,-61.5234375,0
1718464699,-16.11328125,-45.8984375,-43.45703125,-11.71875,0
1718464699,21.97265625,-33.69140625,-31.25,49.8046875,0
1718464699,-12.20703125,-27.83203125,-29.78515625,28.80859375,0
1718464699,-66.40625,-40.52734375,-40.0390625,-48.33984375,0
1718464699,-40.52734375,-41.015625,-45.8984375,-44.43359375,0
1718464699,24.90234375,-27.83203125,-38.57421875,44.43359375,0
1718464699,9.765625,-23.92578125,-34.66796875,48.33984375,0
1718464699,-43.9453125,-34.1796875,-40.52734375,-33.203125,0
1718464699,-48.828125,-36.1328125,-34.66796875,-65.91796875,0
1718464699,17.08984375,-26.3671875,-36.1328125,10.7421875,0
1718464699,31.25,-20.5078125,-40.0390625,53.22265625,0
1718464699,-24.4140625,-24.90234375,-40.0390625,8.7890625,0
1718464699,-69.3359375,-28.80859375,-37.109375,-65.91796875,0
1718464699,-28.3203125,-21.484375,-29.78515625,-36.1328125,0
1718464699,29.78515625,-13.671875,-27.34375,50.29296875,0
1718464699,-12.6953125,-17.08984375,-29.78515625,10.7421875,0
1718464699,-68.359375,-24.4140625,-37.109375,-80.56640625,0
1718464699,-20.5078125,-19.04296875,-38.57421875,-43.45703125,0
1718464699,61.03515625,-15.625,-34.66796875,58.10546875,0
1718464699,31.25,-22.94921875,-34.66796875,34.66796875,0
1718464699,-41.015625,-23.92578125,-41.015625,-62.01171875,0
1718464699,-21.484375,-24.4140625,-37.59765625,-54.19921875,0
1718464699,45.41015625,-29.78515625,-31.25,48.33984375,0
1718464699,39.55078125,-31.25,-29.78515625,60.546875,0
1718464699,-35.15625,-24.4140625,-29.296875,-57.12890625,0
1718464699,-51.7578125,-24.90234375,-35.64453125,-88.8671875,0
1718464699,12.20703125,-27.83203125,-34.1796875,0,0
1718464699,35.64453125,-28.3203125,-29.296875,39.0625,0
1718464699,-33.69140625,-37.109375,-30.2734375,-37.109375,0
1718464699,-69.82421875,-32.71484375,-31.25,-91.30859375,0
1718464699,-8.7890625,-33.203125,-31.73828125,-19.04296875,0
1718464699,30.76171875,-31.25,-20.5078125,45.8984375,0
1718464699,-16.6015625,-23.92578125,-19.53125,5.859375,0
1718464699,-58.59375,-26.85546875,-24.90234375,-59.5703125,0
1718464699,-18.5546875,-39.55078125,-31.25,-20.99609375,0
1718464699,20.99609375,-39.55078125,-34.1796875,36.62109375,0
1718464699,-19.04296875,-22.94921875,-28.3203125,-0.48828125,0
1718464699,-69.82421875,-23.4375,-32.2265625,-68.84765625,0
1718464699,-62.98828125,-36.1328125,-37.59765625,-64.453125,0
1718464699,2.44140625,-30.2734375,-32.71484375,17.08984375,0
1718464699,11.71875,-23.92578125,-24.90234375,33.203125,0
1718464699,-43.9453125,-30.76171875,-34.1796875,-40.52734375,0
1718464699,-56.15234375,-33.69140625,-36.62109375,-68.359375,0
1718464699,0.48828125,-26.85546875,-29.78515625,-0.48828125,0
1718464699,38.0859375,-16.11328125,-28.3203125,46.38671875,0
1718464699,3.90625,-21.97265625,-29.296875,-4.39453125,0
1718464699,-32.2265625,-35.64453125,-34.1796875,-58.59375,0
1718464699,-7.32421875,-24.4140625,-28.80859375,-30.76171875,0
1718464699,42.96875,-13.18359375,-24.90234375,52.734375,0
1718464699,10.7421875,-11.71875,-28.80859375,33.69140625,0
1718464699,-48.33984375,-12.6953125,-28.3203125,-60.546875,0
1718464699,-25.390625,-17.08984375,-29.296875,-36.62109375,0
1718464699,41.9921875,-19.53125,-27.83203125,63.4765625,0
1718464700,29.296875,-18.06640625,-29.78515625,62.01171875,0
1718464700,-43.45703125,-17.08984375,-30.76171875,-28.80859375,0
1718464700,-45.8984375,-16.6015625,-29.296875,-48.828125,0
1718464700,21.97265625,-16.11328125,-23.92578125,34.1796875,0
1718464700,37.109375,-19.04296875,-19.53125,76.171875,0
1718464700,-37.59765625,-20.5078125,-18.5546875,-9.27734375,0
1718464700,-67.87109375,-17.578125,-17.578125,-68.84765625,0
1718464700,1.953125,-19.04296875,-19.04296875,8.30078125,0
1718464700,57.6171875,-20.99609375,-21.484375,92.7734375,0
1718464700,-3.90625,-13.671875,-18.06640625,9.765625,0
1718464700,-53.7109375,-16.11328125,-25.87890625,-84.9609375,0
1718464700,-4.8828125,-21.484375,-28.3203125,-33.69140625,0
1718464700,46.875,-18.06640625,-22.4609375,43.9453125,0
1718464700,13.671875,-16.11328125,-27.34375,5.37109375,0
1718464700,-40.0390625,-16.6015625,-32.2265625,-75.68359375,0
1718464700,-14.16015625,-20.01953125,-36.62109375,-56.640625,0
1718464700,46.875,-27.34375,-29.78515625,37.59765625,0
1718464700,31.73828125,-18.5546875,-20.99609375,38.57421875,0
1718464700,-36.1328125,-16.11328125,-33.69140625,-59.08203125,0
1718464700,-25.390625,-29.78515625,-42.96875,-57.12890625,0
1718464700,39.0625,-34.66796875,-31.73828125,41.50390625,0
1718464700,29.296875,-20.01953125,-20.5078125,50.29296875,0
1718464700,-21.97265625,-12.6953125,-29.296875,-16.6015625,0
1718464700,-42.48046875,-18.5546875,-36.62109375,-49.31640625,0
1718464700,0.48828125,-19.53125,-34.1796875,6.8359375,0
1718464700,26.85546875,-19.04296875,-30.76171875,58.10546875,0
1718464700,-21.484375,-17.578125,-31.25,8.7890625,0
1718464700,-50.78125,-24.90234375,-39.0625,-44.43359375,0
1718464700,-0.9765625,-26.85546875,-40.0390625,-3.90625,0
1718464700,47.8515625,-18.06640625,-30.2734375,60.546875,0
1718464700,21.484375,-14.16015625,-26.85546875,35.64453125,0
1718464700,-10.7421875,-20.99609375,-32.2265625,-22.94921875,0
1718464700,-21.484375,-23.4375,-31.25,-50.29296875,0
1718464700,25.390625,-11.71875,-24.90234375,18.5546875,0
1718464700,47.36328125,-11.23046875,-30.2734375,55.17578125,0
1718464700,-25.390625,-18.06640625,-40.0390625,-36.1328125,0
1718464700,-52.24609375,-16.6015625,-35.15625,-85.44921875,0
1718464700,5.37109375,-19.04296875,-26.3671875,-15.13671875,0
1718464700,28.80859375,-22.94921875,-23.92578125,34.66796875,0
1718464700,-21.484375,-22.4609375,-22.4609375,-20.01953125,0
1718464700,-63.96484375,-28.3203125,-23.92578125,-84.9609375,0
1718464700,-26.85546875,-31.25,-21.484375,-45.8984375,0
1718464700,23.4375,-32.71484375,-21.97265625,40.52734375,0
1718464700,-11.71875,-37.59765625,-25.87890625,20.5078125,0
1718464700,-75.1953125,-27.34375,-22.94921875,-91.796875,0
1718464700,-34.66796875,-18.06640625,-16.11328125,-67.3828125,0
1718464700,40.0390625,-23.92578125,-20.01953125,44.43359375,0
1718464700,25.87890625,-20.01953125,-27.34375,39.55078125,0
1718464700,-49.8046875,-13.671875,-32.71484375,-62.98828125,0
1718464700,-43.45703125,-15.625,-42.48046875,-67.3828125,0
1718464700,28.80859375,-13.18359375,-35.64453125,41.015625,0
1718464700,19.04296875,-10.7421875,-24.4140625,51.7578125,0
1718464700,-44.921875,-14.6484375,-23.92578125,-34.1796875,0
1718464700,-51.26953125,-21.97265625,-24.4140625,-58.59375,0
1718464700,21.484375,-19.53125,-25.390625,37.59765625,0
1718464700,35.64453125,-13.671875,-17.578125,61.5234375,0
1718464700,-28.80859375,-5.37109375,-7.32421875,-24.90234375,0
1718464700,-57.6171875,-2.44140625,-15.625,-69.3359375,0
1718464700,-10.25390625,-5.37109375,-23.92578125,-26.85546875,0
1718464700,30.2734375,-1.46484375,-19.53125,33.69140625,0
1718464700,-15.625,0,-14.6484375,-5.859375,0
1718464700,-75.68359375,-5.37109375,-21.484375,-96.6796875,0
1718464700,-69.82421875,-13.18359375,-28.3203125,-83.49609375,0
1718464700,-19.04296875,-8.7890625,-26.3671875,2.9296875,0
1718464700,-22.4609375,-10.7421875,-32.71484375,0,0
1718464700,-72.265625,-17.578125,-29.78515625,-72.75390625,0
1718464700,-53.22265625,-20.5078125,-28.3203125,-61.5234375,0
1718464700,-0.9765625,-10.25390625,-21.97265625,-1.46484375,0
1718464700,14.16015625,-2.44140625,-13.671875,36.62109375,0
1718464700,-34.66796875,-5.37109375,-19.53125,-15.625,0
1718464700,-47.8515625,-8.7890625,-28.3203125,-63.96484375,0
1718464700,8.30078125,-9.27734375,-25.390625,3.41796875,0
1718464700,35.64453125,-2.44140625,-17.578125,62.5,0
1718464700,1.46484375,-0.9765625,-20.5078125,16.6015625,0
1718464700,-41.50390625,-2.9296875,-24.90234375,-66.89453125,0
1718464700,3.41796875,1.46484375,-28.80859375,-26.85546875,0
1718464700,72.265625,3.41796875,-32.71484375,70.80078125,0
1718464700,50.29296875,-2.44140625,-32.71484375,58.59375,0
1718464700,-29.296875,1.953125,-29.296875,-46.875,0
1718464700,-34.1796875,8.7890625,-27.83203125,-58.59375,0
1718464700,31.25,7.8125,-26.3671875,38.0859375,0
1718464700,19.53125,3.90625,-27.34375,44.43359375,0
1718464700,-43.45703125,4.39453125,-24.90234375,-43.45703125,0
1718464700,-37.59765625,8.30078125,-21.484375,-54.6875,0
1718464700,26.3671875,13.18359375,-18.5546875,27.83203125,0
1718464700,33.69140625,13.671875,-16.11328125,58.59375,0
1718464700,-34.66796875,8.30078125,-19.04296875,-14.6484375,0
1718464700,-63.4765625,4.39453125,-31.25,-69.82421875,0
1718464700,3.41796875,0,-31.73828125,2.9296875,0
1718464700,49.8046875,-2.44140625,-19.04296875,79.1015625,0
1718464700,-19.04296875,-1.46484375,-14.16015625,2.9296875,0
1718464700,-66.89453125,-1.46484375,-20.5078125,-79.58984375,0
1718464700,-14.6484375,-4.8828125,-20.99609375,-26.85546875,0
1718464700,32.71484375,0,-11.71875,55.17578125,0
1718464700,4.8828125,3.90625,-12.20703125,36.1328125,0
1718464700,-43.45703125,-1.953125,-21.484375,-35.64453125,0
1718464700,-29.296875,-6.8359375,-24.90234375,-35.15625,0
1718464700,36.62109375,-1.953125,-19.04296875,44.921875,0
1718464700,41.50390625,5.37109375,-14.6484375,57.12890625,0
1718464700,-22.4609375,3.90625,-18.5546875,-20.99609375,0
1718464700,-27.34375,-10.25390625,-26.3671875,-45.41015625,0
1718464700,19.53125,-7.32421875,-16.6015625,9.765625,0
1718464700,41.015625,6.34765625,-12.20703125,45.8984375,0
1718464700,4.8828125,1.953125,-21.484375,-5.37109375,0
1718464700,-27.83203125,-14.6484375,-27.34375,-40.52734375,0
1718464700,-1.46484375,-13.671875,-21.484375,-9.765625,0
1718464700,34.66796875,-4.39453125,-13.671875,39.55078125,0
1718464700,0.48828125,-5.37109375,-21.97265625,20.99609375,0
1718464700,-59.5703125,-15.625,-30.2734375,-67.3828125,0
1718464700,-41.015625,-10.7421875,-23.92578125,-60.05859375,0
1718464700,23.4375,-0.9765625,-20.99609375,27.83203125,0
1718464700,9.765625,-1.953125,-21.97265625,30.76171875,0
1718464700,-53.7109375,-2.44140625,-26.3671875,-52.24609375,0
1718464700,-48.33984375,-5.859375,-30.2734375,-64.94140625,0
1718464700,20.01953125,-1.953125,-31.73828125,11.23046875,0
1718464700,38.57421875,0.48828125,-35.64453125,50.78125,0
1718464700,-23.92578125,-13.671875,-39.55078125,-18.06640625,0
1718464700,-63.96484375,-6.34765625,-36.1328125,-90.8203125,0
1718464700,5.859375,0.9765625,-34.1796875,-11.23046875,0
1718464700,47.36328125,-10.25390625,-37.109375,63.96484375,0
1718464700,-9.27734375,-8.7890625,-34.1796875,-9.765625,0
1718464700,-49.8046875,-2.9296875,-34.1796875,-87.40234375,0
1718464700,0.9765625,7.32421875,-28.3203125,-41.50390625,0
1718464700,63.4765625,8.7890625,-20.01953125,47.8515625,0
1718464700,25.87890625,0,-20.99609375,27.34375,0
1718464700,-47.8515625,-4.39453125,-24.4140625,-67.3828125,0
1718464700,-15.13671875,1.953125,-23.92578125,-41.50390625,0
1718464700,69.82421875,-3.41796875,-22.4609375,82.51953125,0
1718464700,33.203125,-3.41796875,-17.578125,60.05859375,0
1718464700,-42.48046875,4.39453125,-15.625,-47.36328125,0
1718464700,-25.87890625,-5.37109375,-22.4609375,-49.8046875,0
1718464700,38.57421875,-9.27734375,-21.97265625,28.80859375,0
1718464700,28.80859375,-2.44140625,-11.23046875,47.8515625,0
1718464700,-39.55078125,-5.859375,-9.765625,-21.484375,0
1718464700,-55.6640625,-8.7890625,-11.71875,-51.7578125,0
1718464700,2.44140625,0,-7.8125,12.20703125,0
1718464700,32.71484375,2.9296875,-16.11328125,62.5,0
1718464700,-21.97265625,4.39453125,-16.11328125,1.46484375,0
1718464700,-65.91796875,2.9296875,-11.23046875,-74.21875,0
1718464700,-35.15625,0.48828125,-18.06640625,-31.73828125,0
1718464700,4.39453125,12.20703125,-14.16015625,23.4375,0
1718464700,-21.97265625,20.01953125,-15.13671875,-2.44140625,0
1718464700,-66.89453125,10.25390625,-32.2265625,-76.66015625,0
1718464700,-46.38671875,0.48828125,-36.1328125,-74.21875,0
1718464700,-5.37109375,12.20703125,-26.3671875,-1.46484375,0
1718464700,-12.6953125,20.99609375,-21.484375,11.23046875,0
1718464700,-54.6875,15.13671875,-31.25,-57.6171875,0
1718464700,-61.03515625,11.71875,-33.69140625,-89.84375,0
1718464700,6.8359375,14.16015625,-20.99609375,-3.41796875,0
1718464700,28.3203125,15.13671875,-13.671875,49.31640625,0
1718464700,-23.92578125,4.39453125,-25.390625,-7.32421875,0
1718464700,-75.68359375,0,-28.80859375,-87.40234375,0
1718464700,-32.2265625,14.6484375,-18.06640625,-53.7109375,0
1718464700,34.66796875,26.3671875,-12.6953125,41.015625,0
1718464700,-6.34765625,21.97265625,-16.11328125,12.20703125,0
1718464700,-63.96484375,17.08984375,-20.01953125,-75.68359375,0
1718464700,-26.85546875,12.20703125,-25.390625,-38.57421875,0
1718464700,34.1796875,11.23046875,-24.90234375,57.12890625,0
1718464700,6.34765625,15.13671875,-10.7421875,35.64453125,0
1718464700,-49.31640625,20.99609375,-13.671875,-47.8515625,0
1718464700,-32.71484375,19.53125,-24.90234375,-40.0390625,0
1718464700,31.25,15.625,-24.90234375,54.19921875,0
1718464700,31.73828125,16.6015625,-23.4375,74.70703125,0
1718464700,-44.43359375,23.92578125,-17.08984375,-32.2265625,0
1718464700,-49.31640625,25.390625,-22.94921875,-68.359375,0
1718464700,24.90234375,24.90234375,-25.390625,21.97265625,0
1718464700,41.50390625,27.34375,-15.13671875,63.96484375,0
1718464700,-24.90234375,18.06640625,-15.625,-16.6015625,0
1718464700,-58.59375,18.5546875,-18.5546875,-83.49609375,0
1718464700,10.25390625,23.4375,-16.11328125,-20.99609375,0
1718464700,47.8515625,20.01953125,-7.32421875,42.96875,0
1718464700,4.39453125,19.53125,-10.7421875,8.30078125,0
1718464700,-44.921875,14.6484375,-21.484375,-65.91796875,0
1718464700,-13.18359375,4.8828125,-21.484375,-33.69140625,0
1718464700,27.83203125,8.7890625,-14.6484375,28.80859375,0
1718464700,-9.765625,17.578125,-13.18359375,-1.46484375,0
1718464700,-65.4296875,5.859375,-21.97265625,-80.56640625,0
1718464700,-51.7578125,-3.90625,-24.4140625,-87.40234375,0
1718464700,16.11328125,7.8125,-12.20703125,12.20703125,0
1718464700,22.94921875,11.71875,-17.08984375,46.875,0
1718464700,-41.015625,5.859375,-25.390625,-25.87890625,0
1718464700,-57.12890625,6.8359375,-22.94921875,-58.59375,0
1718464700,11.71875,19.04296875,-16.11328125,9.765625,0
1718464700,52.24609375,26.85546875,-11.71875,64.453125,0
1718464700,13.671875,20.5078125,-15.625,33.69140625,0
1718464700,-29.296875,6.8359375,-25.390625,-27.83203125,0
1718464700,-15.625,12.6953125,-19.53125,-20.5078125,0
1718464700,47.36328125,20.01953125,-11.71875,57.12890625,0
1718464700,39.0625,16.6015625,-17.578125,45.41015625,0
1718464700,-36.62109375,16.6015625,-17.578125,-55.6640625,0
1718464700,-24.4140625,21.97265625,-12.6953125,-41.50390625,0
1718464700,36.62109375,15.13671875,-14.6484375,48.33984375,0
1718464700,12.20703125,8.30078125,-16.11328125,39.0625,0
1718464700,-62.5,9.27734375,-14.16015625,-58.59375,0
1718464700,-71.2890625,2.44140625,-15.625,-89.35546875,0
1718464700,2.44140625,4.39453125,-13.18359375,6.34765625,0
1718464700,33.203125,1.46484375,-16.11328125,65.91796875,0
1718464700,-36.1328125,-2.9296875,-10.25390625,-17.08984375,0
1718464700,-62.98828125,1.46484375,-10.25390625,-79.1015625,0
1718464700,5.37109375,-2.9296875,-21.97265625,-15.13671875,0
1718464700,59.5703125,-10.25390625,-23.92578125,69.3359375,0
1718464700,-13.18359375,-4.8828125,-19.04296875,-10.25390625,0
1718464700,-67.3828125,6.8359375,-21.97265625,-100.0976563,0
1718464700,-7.32421875,7.8125,-23.92578125,-32.71484375,0
1718464700,53.22265625,7.32421875,-11.23046875,53.7109375,0
1718464700,25.87890625,5.859375,-11.71875,21.97265625,0
1718464700,-33.69140625,0,-19.53125,-58.10546875,0
1718464700,-9.765625,-6.8359375,-22.94921875,-35.15625,0
1718464700,56.15234375,-17.08984375,-24.4140625,61.03515625,0
1718464700,41.015625,-14.6484375,-17.578125,66.40625,0
1718464700,-35.15625,-9.765625,-24.90234375,-38.57421875,0
1718464700,-25.87890625,-19.04296875,-37.59765625,-52.24609375,0
1718464700,35.15625,-28.3203125,-28.3203125,33.69140625,0
1718464700,26.85546875,-16.11328125,-8.7890625,52.734375,0
1718464700,-32.71484375,-14.16015625,-8.7890625,-16.11328125,0
1718464700,-54.19921875,-27.34375,-15.13671875,-69.82421875,0
1718464700,-10.7421875,-37.59765625,-12.20703125,-16.6015625,0
1718464700,14.16015625,-27.83203125,-5.37109375,41.015625,0
1718464700,-27.83203125,-22.4609375,-6.8359375,0,0
1718464700,-63.4765625,-28.3203125,-18.5546875,-57.12890625,0
1718464700,-27.34375,-27.83203125,-12.6953125,-23.4375,0
1718464700,26.3671875,-25.87890625,-6.8359375,55.6640625,0
1718464700,15.13671875,-19.53125,-10.25390625,39.0625,0
1718464700,-17.578125,-26.3671875,-20.5078125,-28.3203125,0
1718464700,-29.78515625,-29.78515625,-23.92578125,-49.8046875,0
1718464700,20.01953125,-17.578125,-13.18359375,12.6953125,0
1718464700,41.50390625,-14.6484375,-10.7421875,47.8515625,0
1718464700,-23.92578125,-17.08984375,-14.6484375,-26.3671875,0
1718464700,-46.875,-18.06640625,-7.32421875,-70.3125,0
1718464700,24.90234375,-20.99609375,-5.859375,8.30078125,0
1718464700,52.734375,-22.94921875,-20.5078125,64.94140625,0
1718464700,-16.11328125,-23.92578125,-20.99609375,-9.27734375,0
1718464700,-43.9453125,-25.87890625,-15.13671875,-63.4765625,0
1718464700,5.859375,-19.53125,-8.30078125,-3.90625,0
1718464700,56.640625,-20.01953125,-1.46484375,74.21875,0
1718464700,24.90234375,-28.80859375,-8.30078125,50.29296875,0
1718464700,-49.31640625,-20.5078125,-16.6015625,-60.546875,0
1718464700,-16.6015625,-15.13671875,-16.11328125,-33.69140625,0
1718464700,52.24609375,-23.4375,-18.06640625,64.94140625,0
1718464700,21.484375,-25.87890625,-17.08984375,50.78125,0
1718464700,-58.59375,-17.578125,-12.20703125,-53.7109375,0
1718464700,-52.24609375,-20.5078125,-13.18359375,-65.4296875,0
1718464700,20.99609375,-27.83203125,-14.6484375,33.69140625,0
1718464700,21.97265625,-25.390625,-11.71875,49.31640625,0
1718464700,-39.55078125,-29.296875,-12.6953125,-27.83203125,0
1718464700,-46.38671875,-37.109375,-21.484375,-63.96484375,0
1718464700,20.01953125,-41.50390625,-23.92578125,21.484375,0
1718464700,31.73828125,-27.34375,-13.18359375,63.96484375,0
1718464700,-20.99609375,-15.13671875,-10.25390625,-15.13671875,0
1718464700,-31.73828125,-23.4375,-11.71875,-61.5234375,0
1718464700,-4.8828125,-25.87890625,-11.23046875,-4.8828125,0
1718464700,43.9453125,-23.4375,-6.8359375,66.40625,0
1718464700,32.2265625,-16.11328125,-6.34765625,38.57421875,0
1718464700,-24.90234375,-22.94921875,-16.11328125,-46.875,0
1718464700,-0.9765625,-31.73828125,-23.92578125,-45.8984375,0
1718464700,49.31640625,-24.90234375,-18.5546875,36.62109375,0
1718464701,38.0859375,-30.2734375,-20.5078125,43.9453125,0
1718464701,-23.92578125,-39.55078125,-23.92578125,-41.9921875,0
1718464701,-24.4140625,-36.1328125,-19.04296875,-55.17578125,0
1718464701,48.828125,-27.83203125,-17.08984375,31.25,0
1718464701,51.7578125,-30.2734375,-16.6015625,57.6171875,0
1718464701,-6.8359375,-45.8984375,-25.390625,-2.9296875,0
1718464701,-31.73828125,-57.6171875,-25.390625,-38.0859375,0
1718464701,15.13671875,-42.96875,-15.625,8.30078125,0
1718464701,53.7109375,-29.78515625,-12.20703125,70.80078125,0
1718464701,8.7890625,-30.2734375,-17.08984375,45.41015625,0
1718464701,-51.26953125,-28.80859375,-19.04296875,-41.9921875,0
1718464701,-22.4609375,-30.76171875,-19.04296875,-24.4140625,0
1718464701,40.52734375,-38.57421875,-23.4375,70.3125,0
1718464701,20.99609375,-43.9453125,-19.04296875,69.3359375,0
1718464701,-62.01171875,-43.9453125,-21.97265625,-44.43359375,0
1718464701,-43.45703125,-39.55078125,-25.87890625,-65.4296875,0
1718464701,21.484375,-42.48046875,-18.06640625,40.0390625,0
1718464701,-9.765625,-49.8046875,-13.671875,49.8046875,0
1718464701,-37.59765625,-47.8515625,-24.4140625,-49.8046875,0
1718464701,-29.78515625,-41.015625,-36.62109375,-81.0546875,0
1718464701,26.3671875,-35.15625,-28.3203125,-2.44140625,0
1718464701,43.45703125,-31.25,-15.13671875,30.2734375,0
1718464701,-25.87890625,-31.25,-19.04296875,-40.0390625,0
1718464701,-54.19921875,-32.2265625,-21.97265625,-92.28515625,0
1718464701,13.671875,-38.0859375,-22.94921875,-20.5078125,0
1718464701,47.8515625,-41.9921875,-26.3671875,52.24609375,0
1718464701,-18.5546875,-29.296875,-19.04296875,-17.08984375,0
1718464701,-65.4296875,-30.2734375,-17.08984375,-92.7734375,0
1718464701,-18.5546875,-42.96875,-23.92578125,-42.96875,0
1718464701,25.390625,-46.875,-24.4140625,28.80859375,0
1718464701,-1.953125,-43.45703125,-25.390625,14.16015625,0
1718464701,-49.31640625,-46.875,-35.64453125,-47.8515625,0
1718464701,-46.875,-54.6875,-33.69140625,-56.640625,0
1718464701,-5.37109375,-56.640625,-25.390625,12.20703125,0
1718464701,-3.90625,-49.31640625,-28.3203125,26.85546875,0
1718464701,-54.19921875,-44.43359375,-28.3203125,-42.48046875,0
1718464701,-41.50390625,-48.828125,-26.3671875,-44.921875,0
1718464701,5.37109375,-50.29296875,-24.4140625,19.53125,0
1718464701,-6.34765625,-39.55078125,-19.04296875,41.9921875,0
1718464701,-21.97265625,-34.1796875,-23.4375,-12.6953125,0
1718464701,-29.78515625,-48.828125,-24.90234375,-38.57421875,0
1718464701,-3.90625,-45.41015625,-15.13671875,-0.48828125,0
1718464701,46.38671875,-33.203125,-10.7421875,57.12890625,0
1718464701,13.18359375,-30.2734375,-13.671875,40.52734375,0
1718464701,-41.015625,-32.71484375,-10.25390625,-43.9453125,0
1718464701,-10.7421875,-36.62109375,-4.39453125,-31.73828125,0
1718464701,51.26953125,-30.2734375,-4.8828125,52.734375,0
1718464701,34.1796875,-33.69140625,-5.37109375,43.45703125,0
1718464701,-39.0625,-40.52734375,-14.6484375,-51.26953125,0
1718464701,-40.0390625,-40.0390625,-22.4609375,-63.4765625,0
1718464701,22.94921875,-33.69140625,-10.7421875,18.5546875,0
1718464701,42.48046875,-29.78515625,-2.44140625,66.40625,0
1718464701,-8.7890625,-37.109375,-7.32421875,6.34765625,0
1718464701,-46.38671875,-31.73828125,-12.6953125,-73.2421875,0
1718464701,23.4375,-28.80859375,-14.6484375,9.27734375,0
1718464701,65.4296875,-31.25,-5.37109375,91.796875,0
1718464701,0.9765625,-28.3203125,-10.7421875,-1.46484375,0
1718464701,-48.33984375,-28.80859375,-14.6484375,-84.9609375,0
1718464701,-8.30078125,-26.85546875,-10.25390625,-16.11328125,0
1718464701,34.66796875,-31.73828125,-15.13671875,76.171875,0
1718464701,-8.7890625,-30.76171875,-15.13671875,36.1328125,0
1718464701,-69.3359375,-26.3671875,-18.5546875,-66.40625,0
1718464701,-37.109375,-29.296875,-24.90234375,-54.19921875,0
1718464701,37.59765625,-35.15625,-25.87890625,54.6875,0
1718464701,-8.30078125,-32.2265625,-19.04296875,30.76171875,0
1718464701,-84.47265625,-28.3203125,-18.5546875,-83.49609375,0
1718464701,-50.78125,-27.34375,-22.4609375,-72.265625,0
1718464701,17.08984375,-20.99609375,-15.13671875,18.5546875,0
1718464701,19.04296875,-16.6015625,-15.13671875,39.55078125,0
1718464701,-31.73828125,-19.53125,-21.484375,-27.83203125,0
1718464701,-45.41015625,-21.484375,-24.4140625,-67.87109375,0
1718464701,6.8359375,-20.01953125,-24.90234375,-8.7890625,0
1718464701,41.50390625,-19.53125,-25.87890625,51.7578125,0
1718464701,-7.32421875,-18.06640625,-29.296875,-0.48828125,0
1718464701,-42.48046875,-19.53125,-34.1796875,-67.87109375,0
1718464701,1.46484375,-26.85546875,-38.57421875,-18.06640625,0
1718464701,37.109375,-20.01953125,-26.3671875,50.29296875,0
1718464701,12.6953125,-14.6484375,-23.92578125,28.3203125,0
1718464701,-35.15625,-19.04296875,-32.2265625,-40.52734375,0
1718464701,-20.5078125,-21.484375,-28.3203125,-28.80859375,0
1718464701,35.64453125,-14.6484375,-18.06640625,42.48046875,0
1718464701,34.66796875,-8.30078125,-12.20703125,54.6875,0
1718464701,-18.5546875,-11.71875,-21.484375,-21.97265625,0
1718464701,-27.83203125,-14.16015625,-24.90234375,-54.19921875,0
1718464701,41.9921875,-16.6015625,-15.13671875,33.203125,0
1718464701,58.59375,-16.6015625,-11.23046875,71.2890625,0
1718464701,-0.48828125,-19.53125,-12.6953125,-1.46484375,0
1718464701,-57.6171875,-20.5078125,-18.5546875,-77.63671875,0
1718464701,-50.78125,-5.37109375,-14.6484375,-31.25,0
1718464701,33.69140625,2.44140625,-11.23046875,61.5234375,0
1718464701,6.8359375,-6.8359375,-20.99609375,4.8828125,0
1718464701,-53.7109375,-5.859375,-20.5078125,-76.171875,0
1718464701,-21.484375,5.37109375,-18.5546875,-38.0859375,0
1718464701,30.76171875,5.37109375,-19.04296875,39.55078125,0
1718464701,-0.9765625,-0.48828125,-14.6484375,21.97265625,0
1718464701,-67.87109375,-1.953125,-20.99609375,-68.359375,0
1718464701,-44.43359375,-9.27734375,-31.25,-71.2890625,0
1718464701,30.76171875,-11.71875,-32.2265625,37.59765625,0
1718464701,36.1328125,-17.08984375,-28.80859375,68.359375,0
1718464701,-43.9453125,-8.30078125,-20.5078125,-52.734375,0
1718464701,-57.12890625,-5.37109375,-20.01953125,-81.54296875,0
1718464701,25.390625,-4.8828125,-16.11328125,20.99609375,0
1718464701,48.828125,-5.859375,-11.71875,60.05859375,0
1718464701,-21.484375,-17.578125,-20.5078125,-13.18359375,0
1718464701,-54.6875,-17.578125,-23.92578125,-78.125,0
1718464701,11.71875,-18.5546875,-20.01953125,-12.20703125,0
1718464701,65.91796875,-15.625,-15.625,67.3828125,0
1718464701,7.8125,-3.41796875,-10.25390625,19.04296875,0
1718464701,-55.17578125,-1.46484375,-12.20703125,-54.19921875,0
1718464701,17.578125,-15.625,-16.6015625,-15.13671875,0
1718464701,62.5,-19.04296875,-10.7421875,51.7578125,0
1718464701,25.87890625,-2.44140625,-6.8359375,32.2265625,0
1718464701,-20.99609375,-2.9296875,-17.578125,-45.41015625,0
1718464701,-20.5078125,-16.6015625,-20.01953125,-46.38671875,0
1718464701,38.57421875,-13.18359375,-12.6953125,27.83203125,0
1718464701,43.45703125,-5.37109375,-17.08984375,45.41015625,0
1718464701,-28.80859375,-13.18359375,-26.3671875,-21.97265625,0
1718464701,-60.05859375,-22.94921875,-26.3671875,-62.98828125,0
1718464701,-6.8359375,-19.53125,-23.4375,3.41796875,0
1718464701,23.4375,-14.6484375,-22.4609375,49.31640625,0
1718464701,-25.390625,-19.04296875,-20.5078125,1.46484375,0
1718464701,-75.1953125,-23.4375,-26.3671875,-55.17578125,0
1718464701,-57.12890625,-10.7421875,-24.90234375,-49.31640625,0
1718464701,-1.953125,2.44140625,-16.6015625,25.390625,0
1718464701,-20.5078125,-2.9296875,-12.6953125,20.99609375,0
1718464701,-83.0078125,-7.8125,-19.53125,-77.1484375,0
1718464701,-58.59375,-3.90625,-25.87890625,-62.98828125,0
1718464701,23.4375,-4.8828125,-18.06640625,42.48046875,0
1718464701,22.94921875,-8.7890625,-18.5546875,37.59765625,0
1718464701,-39.55078125,-7.32421875,-26.3671875,-58.10546875,0
1718464701,-42.48046875,2.44140625,-18.5546875,-70.3125,0
1718464701,32.71484375,9.27734375,-9.765625,27.83203125,0
1718464701,67.87109375,8.30078125,-13.18359375,83.49609375,0
1718464701,-19.53125,2.44140625,-17.578125,-5.859375,0
1718464701,-58.10546875,1.46484375,-18.5546875,-75.68359375,0
1718464701,36.62109375,4.39453125,-16.6015625,8.7890625,0
1718464701,81.0546875,-3.90625,-19.53125,87.40234375,0
1718464701,6.34765625,-5.859375,-23.4375,4.39453125,0
1718464701,-48.33984375,3.90625,-20.01953125,-82.51953125,0
1718464701,1.953125,5.859375,-16.6015625,-24.4140625,0
1718464701,56.15234375,5.859375,-12.6953125,59.08203125,0
1718464701,20.99609375,10.25390625,-6.8359375,26.85546875,0
1718464701,-47.8515625,2.9296875,-16.11328125,-55.17578125,0
1718464701,-36.1328125,-13.671875,-27.34375,-40.0390625,0
1718464701,20.5078125,-20.01953125,-19.53125,53.7109375,0
1718464701,-3.90625,-13.18359375,-16.11328125,53.7109375,0
1718464701,-78.125,-5.37109375,-18.06640625,-40.0390625,0
1718464701,-75.1953125,-10.25390625,-19.04296875,-56.640625,0
1718464701,-0.48828125,-18.5546875,-9.765625,28.3203125,0
1718464701,6.8359375,-6.8359375,-6.8359375,47.8515625,0
1718464701,-35.64453125,-3.41796875,-14.16015625,-9.27734375,0
1718464701,-42.96875,-14.16015625,-23.92578125,-51.26953125,0
1718464701,6.8359375,-11.23046875,-19.53125,-10.25390625,0
1718464701,57.12890625,-5.859375,-11.71875,60.05859375,0
1718464701,16.6015625,-3.41796875,-9.27734375,33.69140625,0
1718464701,-54.19921875,0,-11.71875,-42.48046875,0
1718464701,3.90625,-3.41796875,-24.90234375,-20.99609375,0
1718464701,69.3359375,5.859375,-18.5546875,56.640625,0
1718464701,26.3671875,16.11328125,-13.671875,35.64453125,0
1718464701,-17.578125,2.44140625,-26.3671875,-24.4140625,0
1718464701,-17.578125,-0.48828125,-25.87890625,-40.0390625,0
1718464701,33.69140625,11.71875,-14.16015625,25.390625,0
1718464701,52.24609375,11.71875,-7.8125,60.546875,0
1718464701,-13.671875,6.8359375,-5.859375,-17.578125,0
1718464701,-36.1328125,4.39453125,-6.8359375,-54.6875,0
1718464701,26.3671875,6.34765625,-6.34765625,21.97265625,0
1718464701,50.78125,7.32421875,-2.9296875,69.82421875,0
1718464701,-14.6484375,2.9296875,-9.765625,0.48828125,0
1718464701,-52.24609375,-1.46484375,-17.08984375,-48.828125,0
1718464701,-13.671875,-2.9296875,-13.18359375,-0.48828125,0
1718464701,33.203125,-3.90625,-9.27734375,73.2421875,0
1718464701,6.34765625,-10.25390625,-12.6953125,50.78125,0
1718464701,-66.89453125,-1.46484375,-15.625,-65.91796875,0
1718464701,-30.76171875,-3.90625,-22.94921875,-43.9453125,0
1718464701,45.8984375,-9.765625,-12.20703125,73.73046875,0
1718464701,22.94921875,0.9765625,-7.8125,64.94140625,0
1718464701,-47.36328125,3.41796875,-14.16015625,-46.38671875,0
1718464701,-33.69140625,-3.41796875,-15.13671875,-52.24609375,0
1718464701,36.1328125,-3.41796875,-19.53125,42.48046875,0
1718464701,38.57421875,3.90625,-22.4609375,65.91796875,0
1718464701,-27.34375,6.34765625,-18.06640625,-21.484375,0
1718464701,-38.0859375,-0.48828125,-18.5546875,-70.3125,0
1718464701,28.80859375,-8.7890625,-21.97265625,18.5546875,0
1718464701,34.66796875,-1.46484375,-17.08984375,55.6640625,0
1718464701,-21.484375,6.34765625,-14.16015625,-23.4375,0
1718464701,-47.8515625,0.48828125,-17.08984375,-78.125,0
1718464701,-5.37109375,-3.90625,-10.25390625,-24.4140625,0
1718464701,46.875,-1.953125,-9.27734375,46.38671875,0
1718464701,15.625,3.90625,-10.7421875,15.13671875,0
1718464701,-44.921875,-9.765625,-24.4140625,-66.89453125,0
1718464701,-23.4375,-22.94921875,-33.69140625,-58.10546875,0
1718464701,37.59765625,-17.08984375,-21.484375,23.92578125,0
1718464701,28.80859375,-17.578125,-19.53125,32.2265625,0
1718464701,-33.69140625,-26.3671875,-24.4140625,-46.875,0
1718464701,-46.38671875,-36.1328125,-26.85546875,-56.15234375,0
1718464701,-22.4609375,-28.80859375,-21.97265625,7.8125,0
1718464701,-12.20703125,-13.18359375,-15.625,46.875,0
1718464701,-44.921875,-15.13671875,-19.04296875,-11.23046875,0
1718464701,-60.05859375,-21.97265625,-29.296875,-58.59375,0
1718464701,-7.32421875,-23.4375,-26.3671875,2.44140625,0
1718464701,32.71484375,-22.4609375,-22.4609375,56.640625,0
1718464701,2.9296875,-22.94921875,-27.34375,11.23046875,0
1718464701,-39.0625,-19.04296875,-21.484375,-67.3828125,0
1718464701,-1.46484375,-14.16015625,-20.5078125,-37.109375,0
1718464701,59.5703125,-15.13671875,-16.6015625,56.640625,0
1718464701,35.15625,-19.04296875,-17.578125,42.96875,0
1718464701,-42.96875,-24.90234375,-31.25,-71.2890625,0
1718464701,-25.390625,-17.578125,-30.76171875,-72.75390625,0
1718464701,58.59375,-7.32421875,-16.6015625,35.64453125,0
1718464701,57.12890625,-10.7421875,-7.32421875,54.6875,0
1718464701,-13.18359375,-9.765625,-10.25390625,-35.64453125,0
1718464701,-33.203125,-4.8828125,-12.20703125,-63.96484375,0
1718464701,35.64453125,-12.6953125,-11.23046875,30.76171875,0
1718464701,50.78125,-17.08984375,-14.16015625,63.96484375,0
1718464701,-22.94921875,-19.04296875,-13.671875,-20.01953125,0
1718464701,-54.6875,-19.04296875,-9.27734375,-65.4296875,0
1718464701,16.11328125,-23.92578125,-17.08984375,16.6015625,0
1718464701,62.5,-34.1796875,-18.06640625,97.65625,0
1718464701,-12.20703125,-23.92578125,-6.34765625,19.04296875,0
1718464701,-55.17578125,-20.5078125,-10.25390625,-54.6875,0
1718464701,-6.34765625,-28.3203125,-13.18359375,-5.859375,0
1718464701,23.4375,-30.2734375,-5.859375,67.87109375,0
1718464701,-12.20703125,-31.73828125,-4.39453125,57.12890625,0
1718464701,-73.73046875,-34.1796875,-16.11328125,-35.15625,0
1718464701,-70.80078125,-38.57421875,-15.625,-37.109375,0
1718464701,-14.6484375,-37.59765625,-6.8359375,41.9921875,0
1718464701,-17.08984375,-31.25,-1.46484375,37.109375,0
1718464701,-73.73046875,-32.71484375,-2.44140625,-49.8046875,0
1718464701,-73.2421875,-35.64453125,-16.6015625,-59.5703125,0
1718464701,-14.6484375,-31.25,-15.13671875,9.27734375,0
1718464701,30.2734375,-17.578125,-2.9296875,46.875,0
1718464701,-0.9765625,-11.23046875,-1.953125,7.8125,0
1718464701,-29.296875,-26.3671875,-16.11328125,-31.73828125,0
1718464701,5.37109375,-26.3671875,-15.625,-11.71875,0
1718464701,55.6640625,-10.7421875,-2.44140625,49.8046875,0
1718464701,32.2265625,-11.23046875,-15.625,31.73828125,0
1718464701,-26.85546875,-17.08984375,-19.53125,-58.59375,0
1718464701,-7.8125,-17.08984375,-11.23046875,-38.0859375,0
1718464701,57.6171875,-19.53125,-17.578125,54.19921875,0
1718464701,38.57421875,-18.06640625,-21.97265625,26.3671875,0
1718464701,-25.390625,-23.4375,-22.4609375,-56.640625,0
1718464701,-33.203125,-27.83203125,-26.85546875,-62.5,0
1718464701,21.484375,-20.01953125,-23.92578125,16.11328125,0
1718464701,41.015625,-27.34375,-21.484375,65.91796875,0
1718464701,-24.90234375,-42.96875,-24.90234375,1.953125,0
1718464701,-64.94140625,-32.71484375,-22.94921875,-70.3125,0
1718464701,1.953125,-24.90234375,-17.578125,0.9765625,0
1718464701,25.87890625,-35.64453125,-22.4609375,64.94140625,0
1718464701,-51.26953125,-40.52734375,-28.3203125,-14.16015625,0
1718464701,-82.51953125,-36.62109375,-21.484375,-84.9609375,0
1718464701,-32.71484375,-36.62109375,-13.18359375,-31.73828125,0
1718464701,18.5546875,-46.38671875,-14.6484375,62.01171875,0
1718464701,-14.16015625,-47.36328125,-15.13671875,32.71484375,0
1718464701,-65.4296875,-44.921875,-19.53125,-48.33984375,0
1718464701,-40.52734375,-45.41015625,-28.3203125,-33.203125,0
1718464701,33.203125,-49.8046875,-28.80859375,55.6640625,0
1718464702,14.6484375,-44.921875,-16.11328125,40.52734375,0
1718464702,-60.546875,-31.73828125,-13.671875,-60.05859375,0
1718464702,-37.59765625,-32.2265625,-22.4609375,-55.17578125,0
1718464702,40.52734375,-34.66796875,-23.4375,25.87890625,0
1718464702,47.8515625,-30.76171875,-21.97265625,47.36328125,0
1718464702,-11.71875,-21.97265625,-14.6484375,-20.5078125,0
1718464702,-30.76171875,-21.97265625,-14.6484375,-72.265625,0
1718464702,35.64453125,-25.390625,-16.6015625,-2.44140625,0
1718464702,74.70703125,-20.5078125,-7.8125,75.68359375,0
1718464702,17.08984375,-19.53125,-6.34765625,23.4375,0
1718464702,-28.3203125,-25.390625,-11.71875,-50.29296875,0
1718464702,7.8125,-41.015625,-9.27734375,-11.71875,0
1718464702,35.64453125,-34.1796875,0,33.203125,0
1718464702,3.90625,-27.34375,-1.46484375,5.859375,0
1718464702,-49.8046875,-36.62109375,-16.11328125,-52.24609375,0
1718464702,-41.9921875,-36.62109375,-12.6953125,-54.19921875,0
1718464702,16.11328125,-31.25,-8.7890625,19.53125,0
1718464702,29.78515625,-25.87890625,-12.20703125,53.7109375,0
1718464702,-29.296875,-26.85546875,-6.34765625,-18.5546875,0
1718464702,-48.828125,-29.78515625,-10.7421875,-63.4765625,0
1718464702,17.578125,-29.296875,-16.11328125,22.94921875,0
1718464702,34.1796875,-28.80859375,-14.16015625,73.73046875,0
1718464702,-19.04296875,-36.1328125,-15.625,4.8828125,0
1718464702,-78.61328125,-42.48046875,-13.18359375,-77.63671875,0
1718464702,-38.0859375,-24.4140625,-4.39453125,-32.2265625,0
1718464702,30.2734375,-22.4609375,-4.8828125,59.08203125,0
1718464702,-7.8125,-33.203125,-3.90625,23.92578125,0
1718464702,-64.94140625,-29.296875,-3.41796875,-66.89453125,0
1718464702,-24.90234375,-28.80859375,-9.27734375,-45.8984375,0
1718464702,37.59765625,-30.2734375,-8.7890625,51.7578125,0
1718464702,21.484375,-29.78515625,-10.25390625,43.9453125,0
1718464702,-31.73828125,-33.203125,-7.8125,-46.875,0
1718464702,-15.625,-36.1328125,-4.8828125,-38.0859375,0
1718464702,52.24609375,-31.73828125,-1.953125,61.5234375,0
1718464702,48.828125,-34.66796875,-3.90625,89.84375,0
1718464702,-41.9921875,-34.66796875,-5.37109375,-25.87890625,0
1718464702,-42.96875,-26.3671875,1.953125,-65.4296875,0
1718464702,30.76171875,-29.78515625,4.39453125,32.71484375,0
1718464702,40.0390625,-27.34375,-5.37109375,62.98828125,0
1718464702,-18.06640625,-27.83203125,-12.6953125,-10.25390625,0
1718464702,-52.734375,-27.34375,-14.6484375,-74.70703125,0
1718464702,8.30078125,-20.99609375,-13.18359375,-13.18359375,0
1718464702,52.734375,-11.23046875,-5.859375,55.17578125,0
1718464702,2.44140625,-8.7890625,-6.34765625,9.27734375,0
1718464702,-48.828125,-21.97265625,-11.23046875,-70.3125,0
1718464702,-14.16015625,-30.76171875,-10.7421875,-36.62109375,0
1718464702,29.78515625,-20.5078125,-7.8125,40.0390625,0
1718464702,0.9765625,-10.7421875,-6.34765625,21.97265625,0
1718464702,-52.24609375,-18.06640625,-13.671875,-46.38671875,0
1718464702,-50.29296875,-24.4140625,-20.99609375,-60.05859375,0
1718464702,2.44140625,-17.578125,-19.53125,9.27734375,0
1718464702,16.6015625,-13.671875,-14.16015625,47.8515625,0
1718464702,-35.64453125,-22.4609375,-13.671875,-18.5546875,0
1718464702,-53.22265625,-24.4140625,-22.4609375,-72.265625,0
1718464702,10.25390625,-15.625,-23.92578125,-13.18359375,0
1718464702,54.19921875,-13.18359375,-11.71875,54.6875,0
1718464702,15.13671875,-21.97265625,-12.6953125,19.53125,0
1718464702,-41.50390625,-36.1328125,-23.92578125,-59.08203125,0
1718464702,-18.06640625,-26.85546875,-17.08984375,-44.921875,0
1718464702,44.921875,-16.6015625,-8.7890625,46.38671875,0
1718464702,16.6015625,-22.94921875,-13.671875,28.80859375,0
1718464702,-50.78125,-29.78515625,-18.5546875,-60.05859375,0
1718464702,-26.3671875,-25.87890625,-15.13671875,-45.41015625,0
1718464702,45.8984375,-18.06640625,-12.6953125,45.8984375,0
1718464702,26.3671875,-17.578125,-16.11328125,45.8984375,0
1718464702,-42.96875,-16.6015625,-16.6015625,-40.52734375,0
1718464702,-37.109375,-16.11328125,-11.71875,-56.15234375,0
1718464702,38.0859375,-16.11328125,-3.41796875,25.390625,0
1718464702,69.82421875,-15.625,-1.953125,82.51953125,0
1718464702,-0.9765625,-13.18359375,-9.765625,5.37109375,0
1718464702,-47.8515625,-19.04296875,-19.04296875,-80.56640625,0
1718464702,15.625,-14.16015625,-20.5078125,-19.04296875,0
1718464702,74.21875,-10.25390625,-18.5546875,76.66015625,0
1718464702,6.34765625,-6.8359375,-15.13671875,12.6953125,0
1718464702,-56.15234375,4.39453125,-15.13671875,-75.1953125,0
1718464702,-7.8125,0.9765625,-18.06640625,-25.87890625,0
1718464702,44.921875,-0.9765625,-24.90234375,53.22265625,0
1718464702,14.6484375,1.46484375,-31.73828125,29.296875,0
1718464702,-49.31640625,-7.8125,-33.203125,-59.08203125,0
1718464702,-36.1328125,-17.08984375,-32.71484375,-49.31640625,0
1718464702,37.59765625,-16.6015625,-30.2734375,54.19921875,0
1718464702,25.390625,-10.25390625,-29.78515625,58.10546875,0
1718464702,-40.52734375,-4.39453125,-33.69140625,-30.76171875,0
1718464702,-29.296875,-11.23046875,-30.2734375,-38.0859375,0
1718464702,34.1796875,-19.04296875,-24.4140625,49.8046875,0
1718464702,34.1796875,-6.8359375,-21.484375,60.05859375,0
1718464702,-16.11328125,-0.48828125,-25.390625,-18.5546875,0
1718464702,-42.96875,-7.32421875,-30.76171875,-67.3828125,0
1718464702,0.48828125,0,-24.90234375,-18.06640625,0
1718464702,39.55078125,8.30078125,-16.6015625,45.8984375,0
1718464702,-4.8828125,3.90625,-21.484375,10.25390625,0
1718464702,-48.828125,-0.9765625,-22.4609375,-56.640625,0
1718464702,-9.765625,-0.9765625,-17.578125,-30.2734375,0
1718464702,39.0625,5.859375,-13.671875,40.0390625,0
1718464702,11.71875,12.6953125,-9.27734375,28.3203125,0
1718464702,-23.4375,2.44140625,-19.04296875,-29.296875,0
1718464702,-36.62109375,3.41796875,-20.01953125,-68.84765625,0
1718464702,9.27734375,12.20703125,-16.6015625,-10.7421875,0
1718464702,31.25,11.71875,-20.99609375,37.109375,0
1718464702,-30.2734375,10.7421875,-19.53125,-36.62109375,0
1718464702,-57.12890625,5.37109375,-19.04296875,-88.8671875,0
1718464702,-2.44140625,6.8359375,-20.01953125,-9.765625,0
1718464702,34.66796875,11.23046875,-20.01953125,62.01171875,0
1718464702,-18.06640625,2.44140625,-21.97265625,3.41796875,0
1718464702,-60.546875,-4.8828125,-22.4609375,-55.17578125,0
1718464702,-19.04296875,0.9765625,-20.99609375,-4.8828125,0
1718464702,35.64453125,0.9765625,-17.08984375,73.73046875,0
1718464702,10.7421875,0,-15.625,61.5234375,0
1718464702,-55.6640625,10.7421875,-15.625,-48.33984375,0
1718464702,-27.34375,17.578125,-22.4609375,-47.8515625,0
1718464702,50.78125,14.6484375,-24.90234375,57.6171875,0
1718464702,33.203125,7.8125,-20.01953125,49.8046875,0
1718464702,-47.36328125,9.765625,-24.4140625,-51.26953125,0
1718464702,-38.0859375,13.18359375,-24.90234375,-46.38671875,0
1718464702,42.96875,11.23046875,-20.01953125,51.7578125,0
1718464702,41.015625,13.671875,-19.04296875,59.08203125,0
1718464702,-18.06640625,16.6015625,-26.85546875,-17.08984375,0
1718464702,-25.390625,20.5078125,-25.87890625,-54.6875,0
1718464702,33.69140625,14.6484375,-20.5078125,14.6484375,0
1718464702,38.0859375,10.25390625,-17.578125,53.7109375,0
1718464702,-29.78515625,19.53125,-14.6484375,-20.99609375,0
1718464702,-52.24609375,18.06640625,-24.4140625,-83.0078125,0
1718464702,0,6.34765625,-27.34375,-35.15625,0
1718464702,40.52734375,10.25390625,-14.6484375,41.015625,0
1718464702,3.90625,12.20703125,-23.4375,16.11328125,0
1718464702,-58.59375,2.44140625,-32.71484375,-58.59375,0
1718464702,-43.9453125,-4.39453125,-27.83203125,-47.36328125,0
1718464702,10.25390625,-1.953125,-16.6015625,36.62109375,0
1718464702,-1.953125,-0.48828125,-11.71875,47.36328125,0
1718464702,-56.15234375,-6.34765625,-15.625,-29.296875,0
1718464702,-47.8515625,-15.13671875,-21.484375,-35.15625,0
1718464702,-11.71875,-4.8828125,-20.99609375,15.625,0
1718464702,0.48828125,7.8125,-18.06640625,45.8984375,0
1718464702,-43.9453125,2.9296875,-22.4609375,-20.01953125,0
1718464702,-63.96484375,-0.9765625,-24.90234375,-77.1484375,0
1718464702,-8.30078125,0,-22.4609375,-12.6953125,0
1718464702,23.4375,6.34765625,-18.06640625,48.828125,0
1718464702,-5.859375,8.7890625,-24.4140625,9.27734375,0
1718464702,-44.921875,12.20703125,-20.01953125,-73.2421875,0
1718464702,-2.44140625,25.390625,-0.9765625,-30.2734375,0
1718464702,75.68359375,32.71484375,5.859375,78.61328125,0
1718464702,56.640625,21.484375,-2.44140625,65.91796875,0
1718464702,-28.3203125,16.6015625,-6.34765625,-61.5234375,0
1718464702,-14.6484375,26.3671875,-1.953125,-71.2890625,0
1718464702,59.08203125,31.73828125,2.9296875,47.36328125,0
1718464702,44.921875,27.83203125,0,50.78125,0
1718464702,-29.78515625,27.34375,-4.8828125,-47.36328125,0
1718464702,-41.015625,19.04296875,-3.41796875,-82.03125,0
1718464702,22.94921875,9.27734375,-4.8828125,1.46484375,0
1718464702,39.55078125,10.7421875,-4.39453125,51.26953125,0
1718464702,-24.4140625,10.25390625,-8.7890625,-23.92578125,0
1718464702,-52.24609375,8.30078125,-7.8125,-76.66015625,0
1718464702,12.6953125,6.8359375,-1.46484375,16.11328125,0
1718464702,55.6640625,5.859375,3.90625,95.21484375,0
1718464702,1.46484375,14.16015625,7.32421875,23.92578125,0
1718464702,-47.36328125,13.671875,3.41796875,-48.828125,0
1718464702,-8.7890625,7.32421875,0,-4.39453125,0
1718464702,53.7109375,9.765625,-3.41796875,82.51953125,0
1718464702,26.85546875,10.7421875,-1.953125,67.3828125,0
1718464702,-40.0390625,-1.46484375,-5.37109375,-27.83203125,0
1718464702,-15.13671875,-2.9296875,-13.671875,-25.87890625,0
1718464702,48.828125,3.41796875,-7.8125,44.43359375,0
1718464702,40.52734375,6.8359375,-2.44140625,40.52734375,0
1718464702,-20.99609375,2.9296875,-8.30078125,-37.59765625,0
1718464702,-20.99609375,-13.18359375,-12.20703125,-52.24609375,0
1718464702,37.59765625,-14.16015625,-1.953125,16.6015625,0
1718464702,45.41015625,-0.48828125,4.8828125,44.921875,0
1718464702,-2.9296875,-6.34765625,-1.953125,-2.9296875,0
1718464702,-30.76171875,-20.5078125,-1.46484375,-44.43359375,0
1718464702,-4.39453125,-17.08984375,0.48828125,-22.94921875,0
1718464702,39.0625,-5.37109375,2.44140625,38.0859375,0
1718464702,14.16015625,0,1.953125,21.97265625,0
1718464702,-38.0859375,-7.8125,-17.578125,-62.5,0
1718464702,-15.13671875,0.9765625,-13.18359375,-44.921875,0
1718464702,43.9453125,11.71875,4.39453125,45.8984375,0
1718464702,31.25,4.8828125,-2.44140625,50.29296875,0
1718464702,-31.25,-3.41796875,-8.7890625,-29.78515625,0
1718464702,-28.80859375,-8.7890625,-13.18359375,-46.875,0
1718464702,29.78515625,-4.39453125,-7.8125,27.83203125,0
1718464702,53.22265625,-5.37109375,3.41796875,80.56640625,0
1718464702,-4.8828125,-11.71875,0.9765625,27.34375,0
1718464702,-52.734375,-3.41796875,1.46484375,-45.41015625,0
1718464702,4.8828125,0.48828125,0,18.5546875,0
1718464702,47.36328125,0,-10.25390625,85.9375,0
1718464702,-16.6015625,-3.41796875,-24.4140625,17.08984375,0
1718464702,-64.453125,-9.765625,-27.34375,-52.734375,0
1718464702,-9.27734375,-14.16015625,-28.3203125,-0.9765625,0
1718464702,52.24609375,-15.625,-27.83203125,93.75,0
1718464702,17.578125,-12.20703125,-21.97265625,68.359375,0
1718464702,-37.59765625,-12.20703125,-19.53125,-25.87890625,0
1718464702,-11.23046875,-6.34765625,-19.04296875,-15.13671875,0
1718464702,68.84765625,-11.23046875,-19.53125,97.16796875,0
1718464702,46.38671875,-9.27734375,-16.6015625,82.03125,0
1718464702,-39.55078125,0,-19.53125,-37.59765625,0
1718464702,-30.2734375,-7.8125,-21.97265625,-43.9453125,0
1718464702,42.96875,-6.34765625,-23.4375,41.9921875,0
1718464702,42.48046875,-1.46484375,-23.4375,64.453125,0
1718464702,-24.4140625,-1.46484375,-26.85546875,-9.27734375,0
1718464702,-37.109375,-1.953125,-30.2734375,-56.640625,0
1718464702,24.90234375,2.9296875,-23.4375,0.48828125,0
1718464702,55.6640625,-2.44140625,-24.90234375,65.4296875,0
1718464702,2.44140625,-10.25390625,-30.76171875,11.23046875,0
1718464702,-41.50390625,-9.27734375,-30.2734375,-69.3359375,0
1718464702,7.8125,-13.671875,-30.76171875,-20.99609375,0
1718464702,39.0625,-10.25390625,-28.80859375,33.203125,0
1718464702,6.8359375,-8.7890625,-38.0859375,10.7421875,0
1718464702,-37.59765625,-18.06640625,-37.59765625,-48.33984375,0
1718464702,-26.3671875,-22.94921875,-30.2734375,-45.8984375,0
1718464702,20.99609375,-14.6484375,-29.296875,29.296875,0
1718464702,20.01953125,-11.23046875,-30.2734375,47.8515625,0
1718464702,-37.59765625,-13.671875,-31.73828125,-24.4140625,0
1718464702,-62.01171875,-7.32421875,-26.3671875,-52.734375,0
1718464702,6.34765625,-8.30078125,-24.90234375,34.1796875,0
1718464702,35.15625,-17.578125,-25.87890625,81.0546875,0
1718464702,-16.11328125,-23.4375,-22.94921875,25.87890625,0
1718464702,-70.80078125,-25.87890625,-20.5078125,-54.19921875,0
1718464702,-25.87890625,-15.625,-18.06640625,-17.578125,0
1718464702,37.59765625,-20.5078125,-20.01953125,71.2890625,0
1718464702,-10.25390625,-26.85546875,-18.06640625,28.3203125,0
1718464702,-61.5234375,-18.5546875,-13.18359375,-62.01171875,0
1718464702,-14.6484375,-16.11328125,-16.6015625,-35.64453125,0
1718464702,55.6640625,-19.53125,-20.99609375,56.640625,0
1718464702,27.34375,-20.5078125,-19.53125,43.45703125,0
1718464702,-35.64453125,-22.4609375,-18.06640625,-45.41015625,0
1718464702,-22.94921875,-26.3671875,-22.94921875,-43.9453125,0
1718464702,48.828125,-26.85546875,-32.2265625,41.50390625,0
1718464702,61.03515625,-33.69140625,-37.59765625,64.453125,0
1718464702,-29.78515625,-24.90234375,-35.64453125,-49.31640625,0
1718464702,-41.9921875,-19.53125,-38.0859375,-88.37890625,0
1718464702,35.64453125,-26.85546875,-38.0859375,-6.8359375,0
1718464702,51.7578125,-31.73828125,-31.25,38.57421875,0
1718464702,-4.8828125,-36.1328125,-25.390625,-14.6484375,0
1718464702,-37.59765625,-37.109375,-38.57421875,-78.61328125,0
1718464702,5.859375,-33.203125,-46.875,-39.55078125,0
1718464702,23.4375,-26.3671875,-32.2265625,23.92578125,0
1718464702,-36.62109375,-19.04296875,-29.78515625,-13.18359375,0
1718464702,-73.73046875,-25.390625,-40.52734375,-76.171875,0
1718464702,-25.390625,-29.296875,-40.0390625,-23.4375,0
1718464702,23.92578125,-20.5078125,-30.76171875,57.6171875,0
1718464702,-0.9765625,-9.765625,-29.296875,32.71484375,0
1718464702,-44.43359375,-9.765625,-31.25,-45.8984375,0
1718464702,-25.87890625,-15.625,-27.34375,-46.38671875,0
1718464702,30.76171875,-6.8359375,-15.625,32.71484375,0
1718464702,41.015625,4.8828125,-17.08984375,65.4296875,0
1718464702,-10.7421875,-3.90625,-21.484375,-5.859375,0
1718464702,-35.64453125,-11.71875,-19.53125,-60.546875,0
1718464702,21.484375,-7.32421875,-20.5078125,6.8359375,0
1718464702,57.12890625,-0.9765625,-16.6015625,63.4765625,0
1718464702,22.4609375,-2.9296875,-20.01953125,28.3203125,0
1718464702,-17.578125,-12.6953125,-23.4375,-25.390625,0
1718464702,-0.48828125,-3.90625,-15.625,-34.1796875,0
1718464702,52.24609375,4.8828125,-6.34765625,40.0390625,0
1718464702,25.390625,-0.9765625,-13.671875,35.64453125,0
1718464702,-41.50390625,-4.8828125,-22.4609375,-69.82421875,0
1718464702,-20.01953125,-5.859375,-21.97265625,-59.08203125,0
1718464702,48.33984375,-14.6484375,-23.4375,45.8984375,0
1718464703,33.69140625,-20.5078125,-21.484375,49.31640625,0
1718464703,-45.8984375,-13.671875,-14.6484375,-49.31640625,0
1718464703,-54.19921875,-13.18359375,-14.6484375,-79.1015625,0
1718464703,9.27734375,-16.6015625,-18.5546875,6.8359375,0
1718464703,10.25390625,-18.06640625,-19.53125,44.921875,0
1718464703,-54.6875,-15.625,-21.484375,-20.01953125,0
1718464703,-80.56640625,-12.20703125,-16.11328125,-71.2890625,0
1718464703,-19.53125,-4.39453125,-18.06640625,-15.13671875,0
1718464703,43.9453125,-3.90625,-18.06640625,76.171875,0
1718464703,-20.5078125,-0.48828125,-12.20703125,11.23046875,0
1718464703,-81.54296875,2.9296875,-21.484375,-96.19140625,0
1718464703,-24.90234375,2.44140625,-28.3203125,-53.7109375,0
1718464703,30.2734375,7.32421875,-21.97265625,28.3203125,0
1718464703,-2.44140625,14.6484375,-20.01953125,0,0
1718464703,-54.19921875,18.5546875,-23.4375,-86.42578125,0
1718464703,-40.0390625,14.6484375,-29.78515625,-79.58984375,0
1718464703,23.4375,18.06640625,-27.34375,20.99609375,0
1718464703,8.7890625,20.99609375,-23.4375,20.5078125,0
1718464703,-66.40625,24.4140625,-31.25,-79.1015625,0
1718464703,-56.15234375,29.296875,-33.203125,-72.265625,0
1718464703,5.37109375,26.85546875,-36.62109375,18.5546875,0
1718464703,5.859375,39.55078125,-30.76171875,23.92578125,0
1718464703,-40.52734375,43.45703125,-31.73828125,-39.0625,0
1718464703,-58.59375,36.62109375,-39.55078125,-82.51953125,0
1718464703,-22.4609375,39.55078125,-34.1796875,-37.59765625,0
1718464703,11.71875,46.38671875,-22.4609375,27.34375,0
1718464703,-25.390625,43.45703125,-16.11328125,-6.8359375,0
1718464703,-62.01171875,38.57421875,-15.625,-67.87109375,0
1718464703,-31.25,37.109375,-2.9296875,-26.85546875,0
1718464703,5.37109375,50.29296875,13.671875,36.62109375,0
1718464703,-11.23046875,63.4765625,13.18359375,26.85546875,0
1718464703,-49.8046875,49.8046875,-3.41796875,-26.3671875,0
1718464703,-57.6171875,47.8515625,-9.27734375,-60.546875,0
1718464703,-5.37109375,67.87109375,0.9765625,16.11328125,0
1718464703,12.6953125,67.87109375,4.39453125,62.5,0
1718464703,-52.734375,63.4765625,-0.48828125,-20.99609375,0
1718464703,-77.63671875,71.77734375,-0.48828125,-67.87109375,0
1718464703,-8.30078125,77.1484375,-0.9765625,7.8125,0
1718464703,32.71484375,77.1484375,-5.37109375,69.82421875,0
1718464703,-24.90234375,75.1953125,-4.8828125,11.23046875,0
1718464703,-69.82421875,69.3359375,-5.37109375,-64.453125,0
1718464703,-22.4609375,77.63671875,1.953125,-29.78515625,0
1718464703,42.48046875,90.33203125,-0.48828125,49.31640625,0
1718464703,17.578125,85.44921875,-7.32421875,39.0625,0
1718464703,-62.5,90.33203125,-4.8828125,-64.453125,0
1718464703,-37.59765625,99.609375,0.9765625,-67.3828125,0
1718464703,38.0859375,105.9570313,-1.46484375,34.66796875,0
1718464703,21.97265625,113.28125,-5.859375,37.109375,0
1718464703,-43.9453125,123.046875,2.9296875,-57.6171875,0
1718464703,-32.2265625,117.6757813,-3.90625,-62.5,0
1718464703,43.45703125,116.2109375,-6.8359375,28.80859375,0
1718464703,40.0390625,130.859375,3.41796875,46.875,0
1718464703,-27.83203125,129.3945313,-0.9765625,-19.53125,0
1718464703,-44.43359375,132.3242188,-6.8359375,-61.03515625,0
1718464703,20.99609375,134.765625,1.953125,10.7421875,0
1718464703,44.921875,139.1601563,8.30078125,62.98828125,0
1718464703,-11.71875,149.4140625,3.90625,4.39453125,0
1718464703,-43.45703125,141.6015625,-0.9765625,-53.7109375,0
1718464703,-1.953125,134.2773438,-3.90625,-15.625,0
1718464703,46.38671875,149.9023438,0,62.5,0
1718464703,10.25390625,159.6679688,0,38.57421875,0
1718464703,-51.26953125,154.7851563,0,-48.828125,0
1718464703,-28.3203125,157.7148438,-7.8125,-31.25,0
1718464703,41.015625,165.0390625,-10.7421875,67.3828125,0
1718464703,31.25,170.4101563,-3.41796875,73.73046875,0
1718464703,-29.78515625,165.0390625,-11.71875,-14.6484375,0
1718464703,-24.4140625,160.15625,-15.625,-20.01953125,0
1718464703,15.625,179.1992188,-8.7890625,31.25,0
1718464703,31.73828125,188.4765625,-8.7890625,52.734375,0
1718464703,-9.765625,184.5703125,-10.7421875,-2.9296875,0
1718464703,-33.69140625,185.0585938,-16.11328125,-49.8046875,0
1718464703,18.5546875,194.3359375,-18.06640625,11.71875,0
1718464703,56.640625,207.5195313,-28.3203125,63.4765625,0
1718464703,16.6015625,214.3554688,-32.71484375,20.99609375,0
1718464703,-36.1328125,216.3085938,-21.484375,-54.19921875,0
1718464703,-5.37109375,217.7734375,-19.04296875,-29.296875,0
1718464703,60.546875,222.65625,-15.13671875,56.15234375,0
1718464703,42.48046875,217.7734375,-15.13671875,68.84765625,0
1718464703,-41.015625,215.3320313,-21.484375,-39.0625,0
1718464703,-30.2734375,233.3984375,-10.7421875,-71.77734375,0
1718464703,55.6640625,237.7929688,-7.32421875,40.0390625,0
1718464703,52.24609375,230.46875,-9.765625,56.15234375,0
1718464703,-27.83203125,237.3046875,-7.8125,-36.62109375,0
1718464703,-45.41015625,251.4648438,-12.20703125,-58.59375,0
1718464703,26.3671875,261.71875,-11.71875,30.2734375,0
1718464703,49.8046875,266.1132813,-4.8828125,74.21875,0
1718464703,-16.6015625,264.1601563,-0.9765625,1.953125,0
1718464703,-59.08203125,252.9296875,-12.6953125,-58.59375,0
1718464703,3.41796875,243.1640625,-21.97265625,6.34765625,0
1718464703,41.015625,240.7226563,-15.13671875,78.61328125,0
1718464703,-28.3203125,247.0703125,-8.30078125,0,0
1718464703,-81.54296875,250.4882813,-14.6484375,-90.33203125,0
1718464703,-37.59765625,253.90625,-18.06640625,-29.78515625,0
1718464703,24.90234375,261.71875,-7.8125,65.4296875,0
1718464703,-2.44140625,260.2539063,-13.671875,42.96875,0
1718464703,-62.98828125,244.6289063,-35.15625,-38.57421875,0
1718464703,-48.33984375,246.09375,-33.203125,-47.36328125,0
1718464703,14.16015625,253.4179688,-25.390625,34.1796875,0
1718464703,15.625,259.2773438,-14.16015625,62.5,0
1718464703,-41.015625,254.3945313,-16.6015625,-15.13671875,0
1718464703,-42.96875,243.1640625,-25.87890625,-43.9453125,0
1718464703,15.13671875,246.09375,-22.94921875,9.765625,0
1718464703,32.2265625,253.4179688,-17.08984375,37.59765625,0
1718464703,-15.625,250.4882813,-19.53125,-6.34765625,0
1718464703,-35.64453125,229.4921875,-23.4375,-42.96875,0
1718464703,-8.7890625,226.5625,-13.671875,-26.3671875,0
1718464703,35.64453125,229.9804688,-9.765625,29.78515625,0
1718464703,9.27734375,218.75,-15.13671875,15.625,0
1718464703,-45.8984375,208.0078125,-19.04296875,-70.80078125,0
1718464703,-22.4609375,206.5429688,-17.578125,-62.5,0
1718464703,28.3203125,208.984375,-19.04296875,23.4375,0
1718464703,3.90625,201.171875,-18.06640625,26.3671875,0
1718464703,-59.08203125,186.0351563,-20.5078125,-47.36328125,0
1718464703,-58.10546875,182.1289063,-25.390625,-62.01171875,0
1718464703,2.44140625,190.9179688,-19.53125,8.7890625,0
1718464703,20.5078125,187.0117188,-17.578125,57.6171875,0
1718464703,-34.66796875,173.3398438,-28.80859375,8.30078125,0
1718464703,-77.63671875,180.1757813,-29.296875,-76.66015625,0
1718464703,-18.5546875,179.6875,-25.390625,-21.97265625,0
1718464703,33.69140625,174.8046875,-22.94921875,56.640625,0
1718464703,-17.578125,182.1289063,-21.97265625,-1.46484375,0
1718464703,-54.19921875,178.2226563,-25.390625,-76.66015625,0
1718464703,2.9296875,182.6171875,-21.484375,-28.80859375,0
1718464703,53.22265625,195.3125,-25.390625,61.03515625,0
1718464703,13.18359375,191.8945313,-35.64453125,38.57421875,0
1718464703,-54.6875,189.9414063,-31.25,-62.5,0
1718464703,-29.296875,192.8710938,-28.80859375,-51.26953125,0
1718464703,56.640625,184.0820313,-28.80859375,68.84765625,0
1718464703,29.78515625,192.3828125,-17.578125,51.7578125,0
1718464703,-44.921875,210.9375,-19.04296875,-59.08203125,0
1718464703,-41.50390625,205.5664063,-31.25,-68.359375,0
1718464703,5.37109375,194.8242188,-24.90234375,5.37109375,0
1718464703,5.859375,194.3359375,-19.04296875,25.87890625,0
1718464703,-46.38671875,197.7539063,-16.11328125,-38.57421875,0
1718464703,-71.2890625,189.453125,-20.99609375,-79.1015625,0
1718464703,-22.94921875,179.6875,-26.3671875,-21.97265625,0
1718464703,18.06640625,181.1523438,-18.06640625,44.43359375,0
1718464703,-28.3203125,185.0585938,-16.6015625,15.13671875,0
1718464703,-65.4296875,188.4765625,-19.04296875,-63.4765625,0
1718464703,-20.99609375,185.0585938,-24.90234375,-39.55078125,0
1718464703,13.18359375,196.2890625,-19.53125,28.80859375,0
1718464703,-13.18359375,203.125,-16.11328125,12.20703125,0
1718464703,-52.734375,186.0351563,-17.578125,-60.05859375,0
1718464703,-31.25,176.7578125,-14.16015625,-49.31640625,0
1718464703,10.25390625,184.0820313,-12.6953125,24.4140625,0
1718464703,-6.34765625,183.59375,-17.08984375,26.3671875,0
1718464703,-68.359375,171.3867188,-22.94921875,-51.26953125,0
1718464703,-90.8203125,173.828125,-20.99609375,-89.84375,0
1718464703,-28.80859375,182.6171875,-16.6015625,-18.06640625,0
1718464703,0.48828125,185.0585938,-16.6015625,30.2734375,0
1718464703,-44.921875,174.8046875,-23.4375,-24.4140625,0
1718464703,-75.68359375,172.3632813,-18.06640625,-91.30859375,0
1718464703,-29.78515625,181.1523438,-15.13671875,-52.734375,0
1718464703,27.34375,184.0820313,-21.484375,32.2265625,0
1718464703,-4.39453125,182.1289063,-16.6015625,7.32421875,0
1718464703,-65.4296875,184.5703125,-20.5078125,-78.61328125,0
1718464703,-40.0390625,183.1054688,-20.99609375,-59.08203125,0
1718464703,28.3203125,177.2460938,-9.765625,39.0625,0
1718464703,3.41796875,165.0390625,-15.625,29.78515625,0
1718464703,-67.87109375,159.1796875,-16.6015625,-61.5234375,0
1718464703,-40.0390625,162.5976563,-16.11328125,-58.59375,0
1718464703,29.296875,158.203125,-21.484375,25.87890625,0
1718464703,28.3203125,145.0195313,-17.08984375,61.03515625,0
1718464703,-51.26953125,158.203125,-11.23046875,-44.921875,0
1718464703,-60.546875,170.4101563,-13.18359375,-90.33203125,0
1718464703,16.6015625,168.4570313,-15.625,2.44140625,0
1718464703,49.31640625,167.4804688,-9.27734375,56.15234375,0
1718464703,-5.859375,158.203125,-4.8828125,-6.34765625,0
1718464703,-53.7109375,149.4140625,-6.34765625,-72.75390625,0
1718464703,-11.23046875,145.0195313,-8.30078125,-34.66796875,0
1718464703,33.69140625,155.2734375,-1.46484375,31.73828125,0
1718464703,-4.39453125,155.7617188,1.953125,3.41796875,0
1718464703,-53.22265625,143.5546875,-3.90625,-67.3828125,0
1718464703,-9.27734375,138.671875,1.953125,-24.4140625,0
1718464703,31.73828125,137.2070313,7.8125,49.31640625,0
1718464703,-1.953125,147.9492188,4.8828125,25.390625,0
1718464703,-43.9453125,142.578125,-3.90625,-47.36328125,0
1718464703,-39.55078125,128.4179688,-6.34765625,-59.5703125,0
1718464703,18.5546875,142.578125,1.46484375,14.16015625,0
1718464703,31.25,156.25,0.9765625,45.41015625,0
1718464703,-22.4609375,146.484375,-11.71875,-23.92578125,0
1718464703,-42.96875,146.484375,-12.6953125,-73.2421875,0
1718464703,6.8359375,163.5742188,-4.39453125,-15.13671875,0
1718464703,42.48046875,174.3164063,-0.48828125,50.29296875,0
1718464703,-2.9296875,169.921875,-8.30078125,17.08984375,0
1718464703,-52.734375,161.1328125,-8.7890625,-38.0859375,0
1718464703,-45.41015625,176.7578125,7.32421875,-37.59765625,0
1718464703,5.859375,188.9648438,9.765625,27.83203125,0
1718464703,-10.25390625,179.6875,2.44140625,25.390625,0
1718464703,-62.98828125,178.7109375,-3.90625,-67.87109375,0
1718464703,-41.015625,179.1992188,0.48828125,-71.77734375,0
1718464703,20.5078125,175.2929688,-0.48828125,23.92578125,0
1718464703,15.625,184.0820313,-2.9296875,31.25,0
1718464703,-48.33984375,199.21875,2.44140625,-59.08203125,0
1718464703,-53.22265625,207.03125,0.48828125,-78.125,0
1718464703,22.4609375,198.7304688,-0.9765625,12.20703125,0
1718464703,42.96875,187.0117188,-4.8828125,60.05859375,0
1718464703,-22.4609375,178.7109375,-9.27734375,-18.5546875,0
1718464703,-60.546875,174.3164063,-11.23046875,-96.6796875,0
1718464703,1.46484375,176.7578125,-14.6484375,-30.76171875,0
1718464703,65.91796875,167.96875,-21.97265625,72.265625,0
1718464703,-1.953125,166.5039063,-17.578125,3.41796875,0
1718464703,-67.3828125,157.7148438,-14.16015625,-90.33203125,0
1718464703,-20.01953125,140.625,-20.5078125,-38.0859375,0
1718464703,33.69140625,138.1835938,-24.4140625,42.48046875,0
1718464703,-1.46484375,141.1132813,-22.94921875,19.53125,0
1718464703,-71.77734375,135.2539063,-26.3671875,-64.453125,0
1718464703,-48.828125,125.4882813,-29.296875,-50.29296875,0
1718464703,31.73828125,130.3710938,-23.4375,48.828125,0
1718464703,25.390625,137.6953125,-13.18359375,61.03515625,0
1718464703,-42.48046875,135.7421875,-15.13671875,-24.90234375,0
1718464703,-37.109375,130.859375,-21.97265625,-45.41015625,0
1718464703,18.5546875,128.90625,-14.6484375,26.85546875,0
1718464703,13.18359375,140.625,-8.30078125,40.0390625,0
1718464703,-33.69140625,133.3007813,-12.6953125,-7.32421875,0
1718464703,-58.59375,121.09375,-10.7421875,-55.17578125,0
1718464703,-17.08984375,132.8125,-7.8125,-24.4140625,0
1718464703,26.85546875,145.9960938,-11.23046875,40.52734375,0
1718464703,4.8828125,149.9023438,-8.7890625,6.34765625,0
1718464703,-26.3671875,144.0429688,-15.13671875,-62.01171875,0
1718464703,1.953125,143.0664063,-19.53125,-42.96875,0
1718464703,38.0859375,147.4609375,-17.08984375,25.390625,0
1718464703,12.6953125,152.8320313,-15.13671875,20.5078125,0
1718464703,-22.94921875,146.9726563,-19.04296875,-38.0859375,0
1718464703,-31.73828125,144.53125,-22.94921875,-61.03515625,0
1718464703,21.484375,159.1796875,-19.53125,6.8359375,0
1718464703,33.203125,164.0625,-22.4609375,35.64453125,0
1718464703,-29.78515625,159.6679688,-25.390625,-33.203125,0
1718464703,-46.38671875,166.9921875,-17.08984375,-71.2890625,0
1718464703,10.7421875,168.4570313,-11.71875,-7.8125,0
1718464703,31.25,168.9453125,-13.671875,51.26953125,0
1718464703,-25.390625,171.875,-19.53125,-13.671875,0
1718464703,-66.89453125,165.5273438,-22.94921875,-88.37890625,0
1718464703,-38.0859375,170.8984375,-17.578125,-48.33984375,0
1718464703,18.06640625,177.734375,-13.671875,43.45703125,0
1718464703,-8.7890625,154.7851563,-22.4609375,33.203125,0
1718464703,-88.8671875,159.1796875,-27.83203125,-78.125,0
1718464703,-53.22265625,170.8984375,-26.3671875,-59.5703125,0
1718464703,29.296875,158.6914063,-30.76171875,49.8046875,0
1718464703,10.25390625,155.2734375,-29.78515625,54.19921875,0
1718464703,-60.546875,153.8085938,-25.390625,-47.8515625,0
1718464703,-49.31640625,148.4375,-21.97265625,-65.4296875,0
1718464703,20.01953125,145.5078125,-15.13671875,25.87890625,0
1718464703,15.13671875,145.0195313,-16.11328125,41.50390625,0
1718464703,-45.8984375,137.6953125,-26.3671875,-39.0625,0
1718464703,-53.7109375,131.8359375,-34.1796875,-80.078125,0
1718464703,15.625,129.8828125,-37.109375,0.48828125,0
1718464703,33.203125,134.765625,-24.90234375,39.55078125,0
1718464703,-27.83203125,144.53125,-15.13671875,-27.83203125,0
1718464703,-58.10546875,130.3710938,-30.76171875,-90.8203125,0
1718464703,-4.39453125,118.1640625,-32.71484375,-48.828125,0
1718464703,44.43359375,121.5820313,-22.94921875,32.2265625,0
